#MeasParameter
&HWS=C:\RAYFLEX\PTS.hws.HWS
&Sample=
&Material=
&Operator=USER_1
&Anode=Cr	&Filter=V	&kV=40	&mA=40
&Detector=ScintCount

#TextureParameter
&H=2	&K=2	&L=0
&Mode=REFL
&Raster=CIRCULAR
&AlphaStart=0.000	&AlphaEnd=70.000	&AlphaStep=3.500
&BetaStart=0.000	&BetaEnd=360.000	&BetaStep=3.600
&2Theta=101.000	&Window=0.000	&Step=0.000
&Time=10.0	&Counts=0
&BGLeft=99.000	&BGRight=0.000	&BGTime=10.0	&BGCounts=0

#Values
&NoValues=2121
   0.000	   0.000	    34.300	    28.600
   0.000	   3.600	    33.500	    28.600
   0.000	   7.200	    36.600	    28.600
   0.000	  10.800	    32.300	    28.600
   0.000	  14.400	    34.000	    28.600
   0.000	  18.000	    31.300	    28.600
   0.000	  21.600	    33.300	    28.600
   0.000	  25.200	    36.200	    28.600
   0.000	  28.800	    34.900	    28.600
   0.000	  32.400	    31.600	    28.600
   0.000	  36.000	    33.300	    28.600
   0.000	  39.600	    33.000	    28.600
   0.000	  43.200	    32.300	    28.600
   0.000	  46.800	    30.500	    28.600
   0.000	  50.400	    33.400	    28.600
   0.000	  54.000	    33.800	    28.600
   0.000	  57.600	    35.500	    28.600
   0.000	  61.200	    36.300	    28.600
   0.000	  64.800	    32.900	    28.600
   0.000	  68.400	    36.900	    28.600
   0.000	  72.000	    37.500	    28.600
   0.000	  75.600	    32.500	    28.600
   0.000	  79.200	    34.400	    28.600
   0.000	  82.800	    32.600	    28.600
   0.000	  86.400	    33.700	    28.600
   0.000	  90.000	    32.700	    28.600
   0.000	  93.600	    32.200	    28.600
   0.000	  97.200	    34.100	    28.600
   0.000	 100.800	    34.600	    28.600
   0.000	 104.400	    29.600	    28.600
   0.000	 108.000	    34.700	    28.600
   0.000	 111.600	    32.900	    28.600
   0.000	 115.200	    34.100	    28.600
   0.000	 118.800	    35.900	    28.600
   0.000	 122.400	    31.900	    28.600
   0.000	 126.000	    33.200	    28.600
   0.000	 129.600	    34.100	    28.600
   0.000	 133.200	    34.200	    28.600
   0.000	 136.800	    32.200	    28.600
   0.000	 140.400	    36.000	    28.600
   0.000	 144.000	    32.200	    28.600
   0.000	 147.600	    32.400	    28.600
   0.000	 151.200	    32.300	    28.600
   0.000	 154.800	    33.400	    28.600
   0.000	 158.400	    29.200	    28.600
   0.000	 162.000	    28.000	    28.600
   0.000	 165.600	    31.000	    28.600
   0.000	 169.200	    32.000	    28.600
   0.000	 172.800	    30.400	    28.600
   0.000	 176.400	    34.600	    28.600
   0.000	 180.000	    31.800	    28.600
   0.000	 183.600	    33.000	    28.600
   0.000	 187.200	    32.400	    28.600
   0.000	 190.800	    32.300	    28.600
   0.000	 194.400	    31.700	    28.600
   0.000	 198.000	    30.400	    28.600
   0.000	 201.600	    32.000	    28.600
   0.000	 205.200	    31.400	    28.600
   0.000	 208.800	    32.300	    28.600
   0.000	 212.400	    36.400	    28.600
   0.000	 216.000	    32.900	    28.600
   0.000	 219.600	    30.800	    28.600
   0.000	 223.200	    30.600	    28.600
   0.000	 226.800	    33.000	    28.600
   0.000	 230.400	    35.900	    28.600
   0.000	 234.000	    29.700	    28.600
   0.000	 237.600	    30.900	    28.600
   0.000	 241.200	    33.000	    28.600
   0.000	 244.800	    30.800	    28.600
   0.000	 248.400	    29.300	    28.600
   0.000	 252.000	    30.800	    28.600
   0.000	 255.600	    31.000	    28.600
   0.000	 259.200	    27.700	    28.600
   0.000	 262.800	    31.100	    28.600
   0.000	 266.400	    31.100	    28.600
   0.000	 270.000	    31.900	    28.600
   0.000	 273.600	    30.400	    28.600
   0.000	 277.200	    32.900	    28.600
   0.000	 280.800	    33.000	    28.600
   0.000	 284.400	    33.500	    28.600
   0.000	 288.000	    36.000	    28.600
   0.000	 291.600	    31.400	    28.600
   0.000	 295.200	    34.400	    28.600
   0.000	 298.800	    31.100	    28.600
   0.000	 302.400	    34.900	    28.600
   0.000	 306.000	    34.300	    28.600
   0.000	 309.600	    35.200	    28.600
   0.000	 313.200	    33.100	    28.600
   0.000	 316.800	    32.200	    28.600
   0.000	 320.400	    31.400	    28.600
   0.000	 324.000	    32.900	    28.600
   0.000	 327.600	    32.200	    28.600
   0.000	 331.200	    33.200	    28.600
   0.000	 334.800	    30.100	    28.600
   0.000	 338.400	    32.100	    28.600
   0.000	 342.000	    34.200	    28.600
   0.000	 345.600	    33.500	    28.600
   0.000	 349.200	    36.300	    28.600
   0.000	 352.800	    36.000	    28.600
   0.000	 356.400	    36.100	    28.600
   0.000	 360.000	    37.000	    28.600
   3.500	   0.000	    32.900	    30.100
   3.500	   3.600	    29.700	    30.100
   3.500	   7.200	    34.200	    30.100
   3.500	  10.800	    37.200	    30.100
   3.500	  14.400	    35.700	    30.100
   3.500	  18.000	    33.900	    30.100
   3.500	  21.600	    32.400	    30.100
   3.500	  25.200	    34.200	    30.100
   3.500	  28.800	    33.800	    30.100
   3.500	  32.400	    32.900	    30.100
   3.500	  36.000	    33.700	    30.100
   3.500	  39.600	    30.400	    30.100
   3.500	  43.200	    35.400	    30.100
   3.500	  46.800	    29.800	    30.100
   3.500	  50.400	    33.600	    30.100
   3.500	  54.000	    31.800	    30.100
   3.500	  57.600	    33.100	    30.100
   3.500	  61.200	    33.400	    30.100
   3.500	  64.800	    38.800	    30.100
   3.500	  68.400	    31.800	    30.100
   3.500	  72.000	    32.600	    30.100
   3.500	  75.600	    35.200	    30.100
   3.500	  79.200	    37.900	    30.100
   3.500	  82.800	    37.000	    30.100
   3.500	  86.400	    31.200	    30.100
   3.500	  90.000	    31.200	    30.100
   3.500	  93.600	    32.000	    30.100
   3.500	  97.200	    33.000	    30.100
   3.500	 100.800	    31.500	    30.100
   3.500	 104.400	    32.800	    30.100
   3.500	 108.000	    30.700	    30.100
   3.500	 111.600	    28.700	    30.100
   3.500	 115.200	    32.400	    30.100
   3.500	 118.800	    31.700	    30.100
   3.500	 122.400	    31.500	    30.100
   3.500	 126.000	    32.200	    30.100
   3.500	 129.600	    32.400	    30.100
   3.500	 133.200	    32.500	    30.100
   3.500	 136.800	    30.100	    30.100
   3.500	 140.400	    32.600	    30.100
   3.500	 144.000	    31.800	    30.100
   3.500	 147.600	    31.800	    30.100
   3.500	 151.200	    31.300	    30.100
   3.500	 154.800	    31.000	    30.100
   3.500	 158.400	    29.600	    30.100
   3.500	 162.000	    31.900	    30.100
   3.500	 165.600	    32.000	    30.100
   3.500	 169.200	    29.600	    30.100
   3.500	 172.800	    28.700	    30.100
   3.500	 176.400	    32.600	    30.100
   3.500	 180.000	    28.000	    30.100
   3.500	 183.600	    31.800	    30.100
   3.500	 187.200	    32.200	    30.100
   3.500	 190.800	    28.500	    30.100
   3.500	 194.400	    30.700	    30.100
   3.500	 198.000	    31.400	    30.100
   3.500	 201.600	    33.400	    30.100
   3.500	 205.200	    31.700	    30.100
   3.500	 208.800	    32.800	    30.100
   3.500	 212.400	    30.500	    30.100
   3.500	 216.000	    32.600	    30.100
   3.500	 219.600	    30.500	    30.100
   3.500	 223.200	    30.600	    30.100
   3.500	 226.800	    32.900	    30.100
   3.500	 230.400	    32.900	    30.100
   3.500	 234.000	    31.700	    30.100
   3.500	 237.600	    32.900	    30.100
   3.500	 241.200	    32.800	    30.100
   3.500	 244.800	    28.800	    30.100
   3.500	 248.400	    35.500	    30.100
   3.500	 252.000	    30.600	    30.100
   3.500	 255.600	    31.800	    30.100
   3.500	 259.200	    31.100	    30.100
   3.500	 262.800	    29.800	    30.100
   3.500	 266.400	    34.600	    30.100
   3.500	 270.000	    32.200	    30.100
   3.500	 273.600	    31.200	    30.100
   3.500	 277.200	    32.200	    30.100
   3.500	 280.800	    34.800	    30.100
   3.500	 284.400	    33.500	    30.100
   3.500	 288.000	    31.500	    30.100
   3.500	 291.600	    33.900	    30.100
   3.500	 295.200	    32.800	    30.100
   3.500	 298.800	    33.000	    30.100
   3.500	 302.400	    35.200	    30.100
   3.500	 306.000	    32.000	    30.100
   3.500	 309.600	    35.300	    30.100
   3.500	 313.200	    33.300	    30.100
   3.500	 316.800	    33.700	    30.100
   3.500	 320.400	    32.700	    30.100
   3.500	 324.000	    30.400	    30.100
   3.500	 327.600	    31.800	    30.100
   3.500	 331.200	    34.300	    30.100
   3.500	 334.800	    33.400	    30.100
   3.500	 338.400	    34.800	    30.100
   3.500	 342.000	    32.300	    30.100
   3.500	 345.600	    32.100	    30.100
   3.500	 349.200	    32.200	    30.100
   3.500	 352.800	    29.900	    30.100
   3.500	 356.400	    33.000	    30.100
   3.500	 360.000	    32.700	    30.100
   7.000	   0.000	    30.700	    30.700
   7.000	   3.600	    32.700	    30.700
   7.000	   7.200	    35.100	    30.700
   7.000	  10.800	    34.600	    30.700
   7.000	  14.400	    34.000	    30.700
   7.000	  18.000	    34.400	    30.700
   7.000	  21.600	    35.900	    30.700
   7.000	  25.200	    33.100	    30.700
   7.000	  28.800	    36.400	    30.700
   7.000	  32.400	    35.500	    30.700
   7.000	  36.000	    35.800	    30.700
   7.000	  39.600	    33.000	    30.700
   7.000	  43.200	    34.000	    30.700
   7.000	  46.800	    33.000	    30.700
   7.000	  50.400	    33.400	    30.700
   7.000	  54.000	    33.300	    30.700
   7.000	  57.600	    36.900	    30.700
   7.000	  61.200	    30.400	    30.700
   7.000	  64.800	    29.600	    30.700
   7.000	  68.400	    27.400	    30.700
   7.000	  72.000	    34.200	    30.700
   7.000	  75.600	    36.100	    30.700
   7.000	  79.200	    36.200	    30.700
   7.000	  82.800	    30.000	    30.700
   7.000	  86.400	    32.100	    30.700
   7.000	  90.000	    33.600	    30.700
   7.000	  93.600	    36.500	    30.700
   7.000	  97.200	    33.900	    30.700
   7.000	 100.800	    33.200	    30.700
   7.000	 104.400	    30.800	    30.700
   7.000	 108.000	    31.300	    30.700
   7.000	 111.600	    31.500	    30.700
   7.000	 115.200	    32.200	    30.700
   7.000	 118.800	    30.900	    30.700
   7.000	 122.400	    34.100	    30.700
   7.000	 126.000	    32.800	    30.700
   7.000	 129.600	    31.600	    30.700
   7.000	 133.200	    32.500	    30.700
   7.000	 136.800	    31.900	    30.700
   7.000	 140.400	    32.000	    30.700
   7.000	 144.000	    34.500	    30.700
   7.000	 147.600	    30.900	    30.700
   7.000	 151.200	    32.000	    30.700
   7.000	 154.800	    27.700	    30.700
   7.000	 158.400	    33.700	    30.700
   7.000	 162.000	    30.500	    30.700
   7.000	 165.600	    30.100	    30.700
   7.000	 169.200	    35.200	    30.700
   7.000	 172.800	    31.000	    30.700
   7.000	 176.400	    32.700	    30.700
   7.000	 180.000	    30.600	    30.700
   7.000	 183.600	    32.200	    30.700
   7.000	 187.200	    32.700	    30.700
   7.000	 190.800	    32.300	    30.700
   7.000	 194.400	    31.100	    30.700
   7.000	 198.000	    32.900	    30.700
   7.000	 201.600	    32.000	    30.700
   7.000	 205.200	    30.600	    30.700
   7.000	 208.800	    29.700	    30.700
   7.000	 212.400	    30.800	    30.700
   7.000	 216.000	    28.100	    30.700
   7.000	 219.600	    29.100	    30.700
   7.000	 223.200	    29.800	    30.700
   7.000	 226.800	    29.000	    30.700
   7.000	 230.400	    31.800	    30.700
   7.000	 234.000	    34.900	    30.700
   7.000	 237.600	    32.100	    30.700
   7.000	 241.200	    30.300	    30.700
   7.000	 244.800	    33.300	    30.700
   7.000	 248.400	    32.600	    30.700
   7.000	 252.000	    32.500	    30.700
   7.000	 255.600	    28.200	    30.700
   7.000	 259.200	    31.200	    30.700
   7.000	 262.800	    30.300	    30.700
   7.000	 266.400	    29.900	    30.700
   7.000	 270.000	    31.000	    30.700
   7.000	 273.600	    30.600	    30.700
   7.000	 277.200	    32.500	    30.700
   7.000	 280.800	    30.200	    30.700
   7.000	 284.400	    34.100	    30.700
   7.000	 288.000	    29.600	    30.700
   7.000	 291.600	    31.200	    30.700
   7.000	 295.200	    33.100	    30.700
   7.000	 298.800	    31.300	    30.700
   7.000	 302.400	    35.100	    30.700
   7.000	 306.000	    35.200	    30.700
   7.000	 309.600	    33.400	    30.700
   7.000	 313.200	    31.100	    30.700
   7.000	 316.800	    35.100	    30.700
   7.000	 320.400	    33.300	    30.700
   7.000	 324.000	    32.900	    30.700
   7.000	 327.600	    32.100	    30.700
   7.000	 331.200	    32.000	    30.700
   7.000	 334.800	    31.500	    30.700
   7.000	 338.400	    32.400	    30.700
   7.000	 342.000	    31.800	    30.700
   7.000	 345.600	    33.000	    30.700
   7.000	 349.200	    33.400	    30.700
   7.000	 352.800	    37.900	    30.700
   7.000	 356.400	    33.300	    30.700
   7.000	 360.000	    35.300	    30.700
  10.500	   0.000	    31.900	    32.100
  10.500	   3.600	    33.700	    32.100
  10.500	   7.200	    33.000	    32.100
  10.500	  10.800	    32.800	    32.100
  10.500	  14.400	    36.500	    32.100
  10.500	  18.000	    32.900	    32.100
  10.500	  21.600	    33.700	    32.100
  10.500	  25.200	    36.900	    32.100
  10.500	  28.800	    33.800	    32.100
  10.500	  32.400	    33.400	    32.100
  10.500	  36.000	    36.700	    32.100
  10.500	  39.600	    35.200	    32.100
  10.500	  43.200	    34.600	    32.100
  10.500	  46.800	    34.500	    32.100
  10.500	  50.400	    36.900	    32.100
  10.500	  54.000	    33.500	    32.100
  10.500	  57.600	    34.700	    32.100
  10.500	  61.200	    32.000	    32.100
  10.500	  64.800	    31.400	    32.100
  10.500	  68.400	    35.700	    32.100
  10.500	  72.000	    34.100	    32.100
  10.500	  75.600	    29.500	    32.100
  10.500	  79.200	    32.200	    32.100
  10.500	  82.800	    32.500	    32.100
  10.500	  86.400	    32.000	    32.100
  10.500	  90.000	    32.700	    32.100
  10.500	  93.600	    34.800	    32.100
  10.500	  97.200	    34.600	    32.100
  10.500	 100.800	    29.900	    32.100
  10.500	 104.400	    33.400	    32.100
  10.500	 108.000	    33.700	    32.100
  10.500	 111.600	    33.300	    32.100
  10.500	 115.200	    30.500	    32.100
  10.500	 118.800	    31.700	    32.100
  10.500	 122.400	    34.100	    32.100
  10.500	 126.000	    30.900	    32.100
  10.500	 129.600	    32.900	    32.100
  10.500	 133.200	    31.900	    32.100
  10.500	 136.800	    33.700	    32.100
  10.500	 140.400	    32.400	    32.100
  10.500	 144.000	    33.300	    32.100
  10.500	 147.600	    29.600	    32.100
  10.500	 151.200	    32.100	    32.100
  10.500	 154.800	    31.500	    32.100
  10.500	 158.400	    32.800	    32.100
  10.500	 162.000	    31.700	    32.100
  10.500	 165.600	    35.100	    32.100
  10.500	 169.200	    31.500	    32.100
  10.500	 172.800	    34.600	    32.100
  10.500	 176.400	    32.100	    32.100
  10.500	 180.000	    29.000	    32.100
  10.500	 183.600	    31.300	    32.100
  10.500	 187.200	    28.400	    32.100
  10.500	 190.800	    31.500	    32.100
  10.500	 194.400	    32.100	    32.100
  10.500	 198.000	    31.200	    32.100
  10.500	 201.600	    31.000	    32.100
  10.500	 205.200	    32.200	    32.100
  10.500	 208.800	    32.600	    32.100
  10.500	 212.400	    31.900	    32.100
  10.500	 216.000	    33.900	    32.100
  10.500	 219.600	    33.000	    32.100
  10.500	 223.200	    29.100	    32.100
  10.500	 226.800	    31.400	    32.100
  10.500	 230.400	    33.200	    32.100
  10.500	 234.000	    33.600	    32.100
  10.500	 237.600	    31.400	    32.100
  10.500	 241.200	    35.700	    32.100
  10.500	 244.800	    31.600	    32.100
  10.500	 248.400	    28.800	    32.100
  10.500	 252.000	    32.900	    32.100
  10.500	 255.600	    32.300	    32.100
  10.500	 259.200	    31.900	    32.100
  10.500	 262.800	    32.400	    32.100
  10.500	 266.400	    30.000	    32.100
  10.500	 270.000	    33.500	    32.100
  10.500	 273.600	    29.700	    32.100
  10.500	 277.200	    35.000	    32.100
  10.500	 280.800	    34.400	    32.100
  10.500	 284.400	    33.100	    32.100
  10.500	 288.000	    31.200	    32.100
  10.500	 291.600	    33.600	    32.100
  10.500	 295.200	    34.200	    32.100
  10.500	 298.800	    36.300	    32.100
  10.500	 302.400	    32.300	    32.100
  10.500	 306.000	    31.000	    32.100
  10.500	 309.600	    36.500	    32.100
  10.500	 313.200	    32.100	    32.100
  10.500	 316.800	    36.900	    32.100
  10.500	 320.400	    32.500	    32.100
  10.500	 324.000	    31.600	    32.100
  10.500	 327.600	    33.700	    32.100
  10.500	 331.200	    32.200	    32.100
  10.500	 334.800	    34.400	    32.100
  10.500	 338.400	    34.300	    32.100
  10.500	 342.000	    31.400	    32.100
  10.500	 345.600	    29.800	    32.100
  10.500	 349.200	    31.400	    32.100
  10.500	 352.800	    37.700	    32.100
  10.500	 356.400	    35.700	    32.100
  10.500	 360.000	    36.000	    32.100
  14.000	   0.000	    33.900	    30.100
  14.000	   3.600	    35.200	    30.100
  14.000	   7.200	    35.500	    30.100
  14.000	  10.800	    35.300	    30.100
  14.000	  14.400	    38.000	    30.100
  14.000	  18.000	    34.100	    30.100
  14.000	  21.600	    34.700	    30.100
  14.000	  25.200	    30.500	    30.100
  14.000	  28.800	    32.100	    30.100
  14.000	  32.400	    36.000	    30.100
  14.000	  36.000	    34.000	    30.100
  14.000	  39.600	    33.700	    30.100
  14.000	  43.200	    37.100	    30.100
  14.000	  46.800	    33.100	    30.100
  14.000	  50.400	    36.100	    30.100
  14.000	  54.000	    36.000	    30.100
  14.000	  57.600	    33.200	    30.100
  14.000	  61.200	    32.900	    30.100
  14.000	  64.800	    35.400	    30.100
  14.000	  68.400	    34.500	    30.100
  14.000	  72.000	    29.000	    30.100
  14.000	  75.600	    34.500	    30.100
  14.000	  79.200	    38.300	    30.100
  14.000	  82.800	    34.100	    30.100
  14.000	  86.400	    35.100	    30.100
  14.000	  90.000	    34.400	    30.100
  14.000	  93.600	    33.500	    30.100
  14.000	  97.200	    36.000	    30.100
  14.000	 100.800	    33.300	    30.100
  14.000	 104.400	    35.100	    30.100
  14.000	 108.000	    34.000	    30.100
  14.000	 111.600	    33.500	    30.100
  14.000	 115.200	    32.800	    30.100
  14.000	 118.800	    35.600	    30.100
  14.000	 122.400	    35.300	    30.100
  14.000	 126.000	    36.900	    30.100
  14.000	 129.600	    34.100	    30.100
  14.000	 133.200	    36.200	    30.100
  14.000	 136.800	    35.000	    30.100
  14.000	 140.400	    31.100	    30.100
  14.000	 144.000	    31.500	    30.100
  14.000	 147.600	    32.400	    30.100
  14.000	 151.200	    34.600	    30.100
  14.000	 154.800	    33.300	    30.100
  14.000	 158.400	    30.800	    30.100
  14.000	 162.000	    34.600	    30.100
  14.000	 165.600	    33.700	    30.100
  14.000	 169.200	    35.900	    30.100
  14.000	 172.800	    32.500	    30.100
  14.000	 176.400	    31.900	    30.100
  14.000	 180.000	    30.100	    30.100
  14.000	 183.600	    31.900	    30.100
  14.000	 187.200	    32.800	    30.100
  14.000	 190.800	    31.200	    30.100
  14.000	 194.400	    30.100	    30.100
  14.000	 198.000	    34.700	    30.100
  14.000	 201.600	    33.800	    30.100
  14.000	 205.200	    33.500	    30.100
  14.000	 208.800	    33.400	    30.100
  14.000	 212.400	    32.600	    30.100
  14.000	 216.000	    28.900	    30.100
  14.000	 219.600	    31.900	    30.100
  14.000	 223.200	    32.500	    30.100
  14.000	 226.800	    31.300	    30.100
  14.000	 230.400	    33.200	    30.100
  14.000	 234.000	    32.000	    30.100
  14.000	 237.600	    30.500	    30.100
  14.000	 241.200	    32.400	    30.100
  14.000	 244.800	    31.100	    30.100
  14.000	 248.400	    33.100	    30.100
  14.000	 252.000	    30.400	    30.100
  14.000	 255.600	    35.000	    30.100
  14.000	 259.200	    31.600	    30.100
  14.000	 262.800	    34.700	    30.100
  14.000	 266.400	    32.400	    30.100
  14.000	 270.000	    34.000	    30.100
  14.000	 273.600	    31.300	    30.100
  14.000	 277.200	    31.000	    30.100
  14.000	 280.800	    30.100	    30.100
  14.000	 284.400	    32.200	    30.100
  14.000	 288.000	    33.500	    30.100
  14.000	 291.600	    32.800	    30.100
  14.000	 295.200	    31.200	    30.100
  14.000	 298.800	    32.900	    30.100
  14.000	 302.400	    33.700	    30.100
  14.000	 306.000	    29.300	    30.100
  14.000	 309.600	    37.900	    30.100
  14.000	 313.200	    29.900	    30.100
  14.000	 316.800	    34.300	    30.100
  14.000	 320.400	    34.000	    30.100
  14.000	 324.000	    33.400	    30.100
  14.000	 327.600	    31.200	    30.100
  14.000	 331.200	    29.800	    30.100
  14.000	 334.800	    32.700	    30.100
  14.000	 338.400	    33.400	    30.100
  14.000	 342.000	    32.100	    30.100
  14.000	 345.600	    30.800	    30.100
  14.000	 349.200	    36.700	    30.100
  14.000	 352.800	    32.700	    30.100
  14.000	 356.400	    34.500	    30.100
  14.000	 360.000	    34.800	    30.100
  17.500	   0.000	    31.900	    31.900
  17.500	   3.600	    34.000	    31.900
  17.500	   7.200	    36.100	    31.900
  17.500	  10.800	    35.800	    31.900
  17.500	  14.400	    37.200	    31.900
  17.500	  18.000	    34.500	    31.900
  17.500	  21.600	    34.700	    31.900
  17.500	  25.200	    36.200	    31.900
  17.500	  28.800	    37.400	    31.900
  17.500	  32.400	    35.400	    31.900
  17.500	  36.000	    33.400	    31.900
  17.500	  39.600	    35.200	    31.900
  17.500	  43.200	    35.400	    31.900
  17.500	  46.800	    35.600	    31.900
  17.500	  50.400	    32.500	    31.900
  17.500	  54.000	    36.700	    31.900
  17.500	  57.600	    35.800	    31.900
  17.500	  61.200	    40.400	    31.900
  17.500	  64.800	    35.400	    31.900
  17.500	  68.400	    34.500	    31.900
  17.500	  72.000	    35.500	    31.900
  17.500	  75.600	    35.700	    31.900
  17.500	  79.200	    34.300	    31.900
  17.500	  82.800	    34.700	    31.900
  17.500	  86.400	    34.600	    31.900
  17.500	  90.000	    37.800	    31.900
  17.500	  93.600	    37.100	    31.900
  17.500	  97.200	    36.500	    31.900
  17.500	 100.800	    34.600	    31.900
  17.500	 104.400	    33.100	    31.900
  17.500	 108.000	    36.900	    31.900
  17.500	 111.600	    37.000	    31.900
  17.500	 115.200	    37.300	    31.900
  17.500	 118.800	    34.000	    31.900
  17.500	 122.400	    35.600	    31.900
  17.500	 126.000	    35.700	    31.900
  17.500	 129.600	    35.100	    31.900
  17.500	 133.200	    36.500	    31.900
  17.500	 136.800	    37.000	    31.900
  17.500	 140.400	    31.300	    31.900
  17.500	 144.000	    36.400	    31.900
  17.500	 147.600	    32.600	    31.900
  17.500	 151.200	    35.200	    31.900
  17.500	 154.800	    33.200	    31.900
  17.500	 158.400	    35.400	    31.900
  17.500	 162.000	    33.000	    31.900
  17.500	 165.600	    31.300	    31.900
  17.500	 169.200	    29.700	    31.900
  17.500	 172.800	    32.900	    31.900
  17.500	 176.400	    34.500	    31.900
  17.500	 180.000	    34.700	    31.900
  17.500	 183.600	    32.200	    31.900
  17.500	 187.200	    30.400	    31.900
  17.500	 190.800	    32.800	    31.900
  17.500	 194.400	    36.500	    31.900
  17.500	 198.000	    32.100	    31.900
  17.500	 201.600	    35.400	    31.900
  17.500	 205.200	    34.900	    31.900
  17.500	 208.800	    32.100	    31.900
  17.500	 212.400	    32.700	    31.900
  17.500	 216.000	    31.600	    31.900
  17.500	 219.600	    30.500	    31.900
  17.500	 223.200	    35.200	    31.900
  17.500	 226.800	    34.400	    31.900
  17.500	 230.400	    32.000	    31.900
  17.500	 234.000	    33.400	    31.900
  17.500	 237.600	    34.400	    31.900
  17.500	 241.200	    35.600	    31.900
  17.500	 244.800	    32.400	    31.900
  17.500	 248.400	    31.400	    31.900
  17.500	 252.000	    32.300	    31.900
  17.500	 255.600	    34.700	    31.900
  17.500	 259.200	    30.800	    31.900
  17.500	 262.800	    33.600	    31.900
  17.500	 266.400	    31.000	    31.900
  17.500	 270.000	    32.300	    31.900
  17.500	 273.600	    35.100	    31.900
  17.500	 277.200	    33.300	    31.900
  17.500	 280.800	    35.200	    31.900
  17.500	 284.400	    34.300	    31.900
  17.500	 288.000	    33.400	    31.900
  17.500	 291.600	    35.700	    31.900
  17.500	 295.200	    33.600	    31.900
  17.500	 298.800	    36.400	    31.900
  17.500	 302.400	    32.800	    31.900
  17.500	 306.000	    37.500	    31.900
  17.500	 309.600	    37.300	    31.900
  17.500	 313.200	    33.600	    31.900
  17.500	 316.800	    35.100	    31.900
  17.500	 320.400	    33.700	    31.900
  17.500	 324.000	    37.900	    31.900
  17.500	 327.600	    33.300	    31.900
  17.500	 331.200	    33.900	    31.900
  17.500	 334.800	    35.900	    31.900
  17.500	 338.400	    35.600	    31.900
  17.500	 342.000	    36.500	    31.900
  17.500	 345.600	    35.600	    31.900
  17.500	 349.200	    35.000	    31.900
  17.500	 352.800	    38.800	    31.900
  17.500	 356.400	    38.800	    31.900
  17.500	 360.000	    36.600	    31.900
  21.000	   0.000	    36.500	    33.300
  21.000	   3.600	    34.600	    33.300
  21.000	   7.200	    40.300	    33.300
  21.000	  10.800	    40.200	    33.300
  21.000	  14.400	    37.900	    33.300
  21.000	  18.000	    35.500	    33.300
  21.000	  21.600	    35.600	    33.300
  21.000	  25.200	    37.200	    33.300
  21.000	  28.800	    36.000	    33.300
  21.000	  32.400	    36.700	    33.300
  21.000	  36.000	    39.400	    33.300
  21.000	  39.600	    38.300	    33.300
  21.000	  43.200	    36.500	    33.300
  21.000	  46.800	    39.000	    33.300
  21.000	  50.400	    40.300	    33.300
  21.000	  54.000	    39.100	    33.300
  21.000	  57.600	    34.300	    33.300
  21.000	  61.200	    39.200	    33.300
  21.000	  64.800	    36.700	    33.300
  21.000	  68.400	    40.000	    33.300
  21.000	  72.000	    36.900	    33.300
  21.000	  75.600	    36.200	    33.300
  21.000	  79.200	    38.000	    33.300
  21.000	  82.800	    34.500	    33.300
  21.000	  86.400	    33.300	    33.300
  21.000	  90.000	    37.900	    33.300
  21.000	  93.600	    37.600	    33.300
  21.000	  97.200	    39.500	    33.300
  21.000	 100.800	    37.500	    33.300
  21.000	 104.400	    36.700	    33.300
  21.000	 108.000	    34.600	    33.300
  21.000	 111.600	    36.800	    33.300
  21.000	 115.200	    35.600	    33.300
  21.000	 118.800	    36.600	    33.300
  21.000	 122.400	    35.500	    33.300
  21.000	 126.000	    33.300	    33.300
  21.000	 129.600	    38.000	    33.300
  21.000	 133.200	    35.800	    33.300
  21.000	 136.800	    34.700	    33.300
  21.000	 140.400	    36.700	    33.300
  21.000	 144.000	    37.300	    33.300
  21.000	 147.600	    34.400	    33.300
  21.000	 151.200	    35.800	    33.300
  21.000	 154.800	    33.200	    33.300
  21.000	 158.400	    34.300	    33.300
  21.000	 162.000	    34.800	    33.300
  21.000	 165.600	    35.000	    33.300
  21.000	 169.200	    35.000	    33.300
  21.000	 172.800	    35.600	    33.300
  21.000	 176.400	    36.900	    33.300
  21.000	 180.000	    33.500	    33.300
  21.000	 183.600	    34.300	    33.300
  21.000	 187.200	    34.300	    33.300
  21.000	 190.800	    36.100	    33.300
  21.000	 194.400	    37.000	    33.300
  21.000	 198.000	    32.200	    33.300
  21.000	 201.600	    34.500	    33.300
  21.000	 205.200	    32.100	    33.300
  21.000	 208.800	    31.100	    33.300
  21.000	 212.400	    35.800	    33.300
  21.000	 216.000	    35.600	    33.300
  21.000	 219.600	    35.300	    33.300
  21.000	 223.200	    34.700	    33.300
  21.000	 226.800	    38.200	    33.300
  21.000	 230.400	    32.100	    33.300
  21.000	 234.000	    35.300	    33.300
  21.000	 237.600	    32.600	    33.300
  21.000	 241.200	    35.000	    33.300
  21.000	 244.800	    33.100	    33.300
  21.000	 248.400	    32.500	    33.300
  21.000	 252.000	    32.900	    33.300
  21.000	 255.600	    35.900	    33.300
  21.000	 259.200	    35.100	    33.300
  21.000	 262.800	    33.300	    33.300
  21.000	 266.400	    34.300	    33.300
  21.000	 270.000	    35.500	    33.300
  21.000	 273.600	    32.800	    33.300
  21.000	 277.200	    34.800	    33.300
  21.000	 280.800	    34.700	    33.300
  21.000	 284.400	    36.000	    33.300
  21.000	 288.000	    34.100	    33.300
  21.000	 291.600	    31.800	    33.300
  21.000	 295.200	    32.400	    33.300
  21.000	 298.800	    33.300	    33.300
  21.000	 302.400	    35.600	    33.300
  21.000	 306.000	    36.700	    33.300
  21.000	 309.600	    36.800	    33.300
  21.000	 313.200	    34.800	    33.300
  21.000	 316.800	    36.900	    33.300
  21.000	 320.400	    34.900	    33.300
  21.000	 324.000	    38.200	    33.300
  21.000	 327.600	    36.400	    33.300
  21.000	 331.200	    38.000	    33.300
  21.000	 334.800	    34.800	    33.300
  21.000	 338.400	    37.900	    33.300
  21.000	 342.000	    37.600	    33.300
  21.000	 345.600	    37.200	    33.300
  21.000	 349.200	    36.900	    33.300
  21.000	 352.800	    36.600	    33.300
  21.000	 356.400	    37.600	    33.300
  21.000	 360.000	    39.200	    33.300
  24.500	   0.000	    35.900	    29.800
  24.500	   3.600	    41.300	    29.800
  24.500	   7.200	    39.000	    29.800
  24.500	  10.800	    38.500	    29.800
  24.500	  14.400	    36.500	    29.800
  24.500	  18.000	    37.800	    29.800
  24.500	  21.600	    43.100	    29.800
  24.500	  25.200	    34.700	    29.800
  24.500	  28.800	    39.000	    29.800
  24.500	  32.400	    39.700	    29.800
  24.500	  36.000	    40.400	    29.800
  24.500	  39.600	    38.500	    29.800
  24.500	  43.200	    43.200	    29.800
  24.500	  46.800	    39.000	    29.800
  24.500	  50.400	    36.500	    29.800
  24.500	  54.000	    39.600	    29.800
  24.500	  57.600	    38.800	    29.800
  24.500	  61.200	    40.200	    29.800
  24.500	  64.800	    43.700	    29.800
  24.500	  68.400	    38.500	    29.800
  24.500	  72.000	    38.000	    29.800
  24.500	  75.600	    39.400	    29.800
  24.500	  79.200	    36.200	    29.800
  24.500	  82.800	    37.000	    29.800
  24.500	  86.400	    38.100	    29.800
  24.500	  90.000	    37.400	    29.800
  24.500	  93.600	    34.400	    29.800
  24.500	  97.200	    38.600	    29.800
  24.500	 100.800	    37.500	    29.800
  24.500	 104.400	    37.000	    29.800
  24.500	 108.000	    36.900	    29.800
  24.500	 111.600	    37.400	    29.800
  24.500	 115.200	    34.100	    29.800
  24.500	 118.800	    37.500	    29.800
  24.500	 122.400	    37.000	    29.800
  24.500	 126.000	    41.700	    29.800
  24.500	 129.600	    38.400	    29.800
  24.500	 133.200	    35.600	    29.800
  24.500	 136.800	    36.700	    29.800
  24.500	 140.400	    40.800	    29.800
  24.500	 144.000	    37.800	    29.800
  24.500	 147.600	    36.600	    29.800
  24.500	 151.200	    37.800	    29.800
  24.500	 154.800	    40.100	    29.800
  24.500	 158.400	    36.000	    29.800
  24.500	 162.000	    31.600	    29.800
  24.500	 165.600	    36.400	    29.800
  24.500	 169.200	    36.800	    29.800
  24.500	 172.800	    36.500	    29.800
  24.500	 176.400	    35.300	    29.800
  24.500	 180.000	    35.300	    29.800
  24.500	 183.600	    38.500	    29.800
  24.500	 187.200	    34.300	    29.800
  24.500	 190.800	    38.900	    29.800
  24.500	 194.400	    38.900	    29.800
  24.500	 198.000	    36.500	    29.800
  24.500	 201.600	    33.100	    29.800
  24.500	 205.200	    42.500	    29.800
  24.500	 208.800	    41.100	    29.800
  24.500	 212.400	    36.200	    29.800
  24.500	 216.000	    34.400	    29.800
  24.500	 219.600	    34.200	    29.800
  24.500	 223.200	    34.500	    29.800
  24.500	 226.800	    32.500	    29.800
  24.500	 230.400	    35.000	    29.800
  24.500	 234.000	    35.000	    29.800
  24.500	 237.600	    37.100	    29.800
  24.500	 241.200	    34.200	    29.800
  24.500	 244.800	    36.500	    29.800
  24.500	 248.400	    34.400	    29.800
  24.500	 252.000	    35.400	    29.800
  24.500	 255.600	    36.500	    29.800
  24.500	 259.200	    38.300	    29.800
  24.500	 262.800	    35.500	    29.800
  24.500	 266.400	    37.700	    29.800
  24.500	 270.000	    33.600	    29.800
  24.500	 273.600	    38.100	    29.800
  24.500	 277.200	    32.900	    29.800
  24.500	 280.800	    39.200	    29.800
  24.500	 284.400	    34.000	    29.800
  24.500	 288.000	    38.000	    29.800
  24.500	 291.600	    36.100	    29.800
  24.500	 295.200	    36.700	    29.800
  24.500	 298.800	    39.400	    29.800
  24.500	 302.400	    37.000	    29.800
  24.500	 306.000	    32.300	    29.800
  24.500	 309.600	    39.200	    29.800
  24.500	 313.200	    38.700	    29.800
  24.500	 316.800	    37.600	    29.800
  24.500	 320.400	    37.400	    29.800
  24.500	 324.000	    37.500	    29.800
  24.500	 327.600	    37.800	    29.800
  24.500	 331.200	    38.700	    29.800
  24.500	 334.800	    33.500	    29.800
  24.500	 338.400	    37.100	    29.800
  24.500	 342.000	    39.500	    29.800
  24.500	 345.600	    36.200	    29.800
  24.500	 349.200	    35.200	    29.800
  24.500	 352.800	    38.900	    29.800
  24.500	 356.400	    35.500	    29.800
  24.500	 360.000	    37.100	    29.800
  28.000	   0.000	    40.600	    31.500
  28.000	   3.600	    43.400	    31.500
  28.000	   7.200	    43.500	    31.500
  28.000	  10.800	    42.500	    31.500
  28.000	  14.400	    40.900	    31.500
  28.000	  18.000	    39.400	    31.500
  28.000	  21.600	    40.800	    31.500
  28.000	  25.200	    38.800	    31.500
  28.000	  28.800	    40.500	    31.500
  28.000	  32.400	    37.900	    31.500
  28.000	  36.000	    39.300	    31.500
  28.000	  39.600	    39.600	    31.500
  28.000	  43.200	    41.700	    31.500
  28.000	  46.800	    41.500	    31.500
  28.000	  50.400	    42.100	    31.500
  28.000	  54.000	    40.400	    31.500
  28.000	  57.600	    38.800	    31.500
  28.000	  61.200	    39.100	    31.500
  28.000	  64.800	    43.400	    31.500
  28.000	  68.400	    39.000	    31.500
  28.000	  72.000	    38.200	    31.500
  28.000	  75.600	    38.500	    31.500
  28.000	  79.200	    41.600	    31.500
  28.000	  82.800	    37.100	    31.500
  28.000	  86.400	    37.000	    31.500
  28.000	  90.000	    37.600	    31.500
  28.000	  93.600	    38.600	    31.500
  28.000	  97.200	    37.900	    31.500
  28.000	 100.800	    40.400	    31.500
  28.000	 104.400	    39.000	    31.500
  28.000	 108.000	    35.300	    31.500
  28.000	 111.600	    39.800	    31.500
  28.000	 115.200	    38.500	    31.500
  28.000	 118.800	    38.200	    31.500
  28.000	 122.400	    37.800	    31.500
  28.000	 126.000	    38.800	    31.500
  28.000	 129.600	    35.900	    31.500
  28.000	 133.200	    38.600	    31.500
  28.000	 136.800	    37.100	    31.500
  28.000	 140.400	    35.900	    31.500
  28.000	 144.000	    37.200	    31.500
  28.000	 147.600	    36.400	    31.500
  28.000	 151.200	    40.700	    31.500
  28.000	 154.800	    35.600	    31.500
  28.000	 158.400	    37.600	    31.500
  28.000	 162.000	    37.500	    31.500
  28.000	 165.600	    35.800	    31.500
  28.000	 169.200	    42.500	    31.500
  28.000	 172.800	    39.500	    31.500
  28.000	 176.400	    37.100	    31.500
  28.000	 180.000	    37.300	    31.500
  28.000	 183.600	    35.700	    31.500
  28.000	 187.200	    42.300	    31.500
  28.000	 190.800	    37.900	    31.500
  28.000	 194.400	    36.700	    31.500
  28.000	 198.000	    36.500	    31.500
  28.000	 201.600	    36.300	    31.500
  28.000	 205.200	    34.400	    31.500
  28.000	 208.800	    36.600	    31.500
  28.000	 212.400	    34.300	    31.500
  28.000	 216.000	    39.200	    31.500
  28.000	 219.600	    34.700	    31.500
  28.000	 223.200	    36.300	    31.500
  28.000	 226.800	    34.100	    31.500
  28.000	 230.400	    38.100	    31.500
  28.000	 234.000	    30.900	    31.500
  28.000	 237.600	    38.800	    31.500
  28.000	 241.200	    32.800	    31.500
  28.000	 244.800	    36.700	    31.500
  28.000	 248.400	    33.500	    31.500
  28.000	 252.000	    34.400	    31.500
  28.000	 255.600	    35.600	    31.500
  28.000	 259.200	    34.100	    31.500
  28.000	 262.800	    37.400	    31.500
  28.000	 266.400	    36.600	    31.500
  28.000	 270.000	    38.900	    31.500
  28.000	 273.600	    38.700	    31.500
  28.000	 277.200	    32.700	    31.500
  28.000	 280.800	    37.800	    31.500
  28.000	 284.400	    40.100	    31.500
  28.000	 288.000	    38.800	    31.500
  28.000	 291.600	    34.600	    31.500
  28.000	 295.200	    35.100	    31.500
  28.000	 298.800	    34.400	    31.500
  28.000	 302.400	    35.500	    31.500
  28.000	 306.000	    37.900	    31.500
  28.000	 309.600	    36.100	    31.500
  28.000	 313.200	    37.300	    31.500
  28.000	 316.800	    37.100	    31.500
  28.000	 320.400	    38.300	    31.500
  28.000	 324.000	    42.000	    31.500
  28.000	 327.600	    36.900	    31.500
  28.000	 331.200	    37.900	    31.500
  28.000	 334.800	    41.500	    31.500
  28.000	 338.400	    42.500	    31.500
  28.000	 342.000	    45.200	    31.500
  28.000	 345.600	    40.700	    31.500
  28.000	 349.200	    37.500	    31.500
  28.000	 352.800	    39.600	    31.500
  28.000	 356.400	    42.500	    31.500
  28.000	 360.000	    39.100	    31.500
  31.500	   0.000	    37.500	    29.900
  31.500	   3.600	    39.500	    29.900
  31.500	   7.200	    39.400	    29.900
  31.500	  10.800	    40.200	    29.900
  31.500	  14.400	    39.500	    29.900
  31.500	  18.000	    39.300	    29.900
  31.500	  21.600	    39.900	    29.900
  31.500	  25.200	    38.700	    29.900
  31.500	  28.800	    38.100	    29.900
  31.500	  32.400	    41.400	    29.900
  31.500	  36.000	    39.400	    29.900
  31.500	  39.600	    41.200	    29.900
  31.500	  43.200	    38.900	    29.900
  31.500	  46.800	    37.100	    29.900
  31.500	  50.400	    41.200	    29.900
  31.500	  54.000	    37.500	    29.900
  31.500	  57.600	    42.900	    29.900
  31.500	  61.200	    39.900	    29.900
  31.500	  64.800	    38.800	    29.900
  31.500	  68.400	    39.900	    29.900
  31.500	  72.000	    39.100	    29.900
  31.500	  75.600	    38.500	    29.900
  31.500	  79.200	    36.100	    29.900
  31.500	  82.800	    41.300	    29.900
  31.500	  86.400	    38.200	    29.900
  31.500	  90.000	    35.800	    29.900
  31.500	  93.600	    44.200	    29.900
  31.500	  97.200	    35.600	    29.900
  31.500	 100.800	    36.800	    29.900
  31.500	 104.400	    37.100	    29.900
  31.500	 108.000	    37.400	    29.900
  31.500	 111.600	    36.000	    29.900
  31.500	 115.200	    40.500	    29.900
  31.500	 118.800	    36.300	    29.900
  31.500	 122.400	    34.200	    29.900
  31.500	 126.000	    34.800	    29.900
  31.500	 129.600	    36.900	    29.900
  31.500	 133.200	    38.600	    29.900
  31.500	 136.800	    36.800	    29.900
  31.500	 140.400	    38.100	    29.900
  31.500	 144.000	    40.500	    29.900
  31.500	 147.600	    33.600	    29.900
  31.500	 151.200	    38.700	    29.900
  31.500	 154.800	    38.300	    29.900
  31.500	 158.400	    38.300	    29.900
  31.500	 162.000	    34.400	    29.900
  31.500	 165.600	    36.000	    29.900
  31.500	 169.200	    35.200	    29.900
  31.500	 172.800	    37.500	    29.900
  31.500	 176.400	    36.400	    29.900
  31.500	 180.000	    36.200	    29.900
  31.500	 183.600	    40.500	    29.900
  31.500	 187.200	    38.900	    29.900
  31.500	 190.800	    36.800	    29.900
  31.500	 194.400	    37.800	    29.900
  31.500	 198.000	    38.400	    29.900
  31.500	 201.600	    40.600	    29.900
  31.500	 205.200	    40.600	    29.900
  31.500	 208.800	    35.900	    29.900
  31.500	 212.400	    37.900	    29.900
  31.500	 216.000	    34.800	    29.900
  31.500	 219.600	    37.500	    29.900
  31.500	 223.200	    37.400	    29.900
  31.500	 226.800	    34.400	    29.900
  31.500	 230.400	    40.100	    29.900
  31.500	 234.000	    38.700	    29.900
  31.500	 237.600	    39.300	    29.900
  31.500	 241.200	    38.100	    29.900
  31.500	 244.800	    33.300	    29.900
  31.500	 248.400	    36.100	    29.900
  31.500	 252.000	    39.700	    29.900
  31.500	 255.600	    37.300	    29.900
  31.500	 259.200	    40.400	    29.900
  31.500	 262.800	    35.900	    29.900
  31.500	 266.400	    34.100	    29.900
  31.500	 270.000	    36.100	    29.900
  31.500	 273.600	    37.100	    29.900
  31.500	 277.200	    38.700	    29.900
  31.500	 280.800	    38.200	    29.900
  31.500	 284.400	    39.400	    29.900
  31.500	 288.000	    41.500	    29.900
  31.500	 291.600	    39.800	    29.900
  31.500	 295.200	    41.200	    29.900
  31.500	 298.800	    35.600	    29.900
  31.500	 302.400	    40.500	    29.900
  31.500	 306.000	    37.400	    29.900
  31.500	 309.600	    41.200	    29.900
  31.500	 313.200	    37.800	    29.900
  31.500	 316.800	    40.600	    29.900
  31.500	 320.400	    39.400	    29.900
  31.500	 324.000	    39.400	    29.900
  31.500	 327.600	    41.500	    29.900
  31.500	 331.200	    42.600	    29.900
  31.500	 334.800	    40.200	    29.900
  31.500	 338.400	    43.600	    29.900
  31.500	 342.000	    39.000	    29.900
  31.500	 345.600	    38.800	    29.900
  31.500	 349.200	    46.900	    29.900
  31.500	 352.800	    38.300	    29.900
  31.500	 356.400	    42.500	    29.900
  31.500	 360.000	    40.500	    29.900
  35.000	   0.000	    39.700	    32.300
  35.000	   3.600	    40.800	    32.300
  35.000	   7.200	    38.700	    32.300
  35.000	  10.800	    42.500	    32.300
  35.000	  14.400	    39.600	    32.300
  35.000	  18.000	    37.200	    32.300
  35.000	  21.600	    39.800	    32.300
  35.000	  25.200	    38.500	    32.300
  35.000	  28.800	    42.200	    32.300
  35.000	  32.400	    38.600	    32.300
  35.000	  36.000	    42.500	    32.300
  35.000	  39.600	    36.700	    32.300
  35.000	  43.200	    38.200	    32.300
  35.000	  46.800	    42.900	    32.300
  35.000	  50.400	    39.300	    32.300
  35.000	  54.000	    35.800	    32.300
  35.000	  57.600	    37.800	    32.300
  35.000	  61.200	    38.600	    32.300
  35.000	  64.800	    37.300	    32.300
  35.000	  68.400	    36.300	    32.300
  35.000	  72.000	    41.100	    32.300
  35.000	  75.600	    39.300	    32.300
  35.000	  79.200	    37.400	    32.300
  35.000	  82.800	    39.100	    32.300
  35.000	  86.400	    40.600	    32.300
  35.000	  90.000	    36.000	    32.300
  35.000	  93.600	    38.700	    32.300
  35.000	  97.200	    37.400	    32.300
  35.000	 100.800	    38.400	    32.300
  35.000	 104.400	    36.800	    32.300
  35.000	 108.000	    37.200	    32.300
  35.000	 111.600	    36.300	    32.300
  35.000	 115.200	    36.200	    32.300
  35.000	 118.800	    38.200	    32.300
  35.000	 122.400	    36.100	    32.300
  35.000	 126.000	    34.100	    32.300
  35.000	 129.600	    33.700	    32.300
  35.000	 133.200	    37.400	    32.300
  35.000	 136.800	    38.200	    32.300
  35.000	 140.400	    32.600	    32.300
  35.000	 144.000	    38.000	    32.300
  35.000	 147.600	    33.600	    32.300
  35.000	 151.200	    36.500	    32.300
  35.000	 154.800	    38.500	    32.300
  35.000	 158.400	    35.900	    32.300
  35.000	 162.000	    36.500	    32.300
  35.000	 165.600	    38.300	    32.300
  35.000	 169.200	    36.200	    32.300
  35.000	 172.800	    37.900	    32.300
  35.000	 176.400	    36.600	    32.300
  35.000	 180.000	    35.600	    32.300
  35.000	 183.600	    34.500	    32.300
  35.000	 187.200	    35.100	    32.300
  35.000	 190.800	    38.900	    32.300
  35.000	 194.400	    34.400	    32.300
  35.000	 198.000	    36.100	    32.300
  35.000	 201.600	    32.900	    32.300
  35.000	 205.200	    35.400	    32.300
  35.000	 208.800	    34.200	    32.300
  35.000	 212.400	    34.800	    32.300
  35.000	 216.000	    37.100	    32.300
  35.000	 219.600	    35.300	    32.300
  35.000	 223.200	    39.000	    32.300
  35.000	 226.800	    33.500	    32.300
  35.000	 230.400	    37.300	    32.300
  35.000	 234.000	    38.100	    32.300
  35.000	 237.600	    32.500	    32.300
  35.000	 241.200	    38.400	    32.300
  35.000	 244.800	    39.600	    32.300
  35.000	 248.400	    35.100	    32.300
  35.000	 252.000	    35.000	    32.300
  35.000	 255.600	    38.200	    32.300
  35.000	 259.200	    34.300	    32.300
  35.000	 262.800	    36.500	    32.300
  35.000	 266.400	    38.400	    32.300
  35.000	 270.000	    38.000	    32.300
  35.000	 273.600	    38.900	    32.300
  35.000	 277.200	    37.300	    32.300
  35.000	 280.800	    38.000	    32.300
  35.000	 284.400	    39.700	    32.300
  35.000	 288.000	    39.400	    32.300
  35.000	 291.600	    37.700	    32.300
  35.000	 295.200	    34.000	    32.300
  35.000	 298.800	    40.200	    32.300
  35.000	 302.400	    36.200	    32.300
  35.000	 306.000	    37.900	    32.300
  35.000	 309.600	    40.300	    32.300
  35.000	 313.200	    40.900	    32.300
  35.000	 316.800	    39.500	    32.300
  35.000	 320.400	    41.400	    32.300
  35.000	 324.000	    39.200	    32.300
  35.000	 327.600	    39.800	    32.300
  35.000	 331.200	    41.100	    32.300
  35.000	 334.800	    41.800	    32.300
  35.000	 338.400	    39.700	    32.300
  35.000	 342.000	    40.000	    32.300
  35.000	 345.600	    40.700	    32.300
  35.000	 349.200	    36.100	    32.300
  35.000	 352.800	    41.900	    32.300
  35.000	 356.400	    36.200	    32.300
  35.000	 360.000	    39.800	    32.300
  38.500	   0.000	    39.500	    33.000
  38.500	   3.600	    38.600	    33.000
  38.500	   7.200	    37.800	    33.000
  38.500	  10.800	    44.300	    33.000
  38.500	  14.400	    39.400	    33.000
  38.500	  18.000	    38.100	    33.000
  38.500	  21.600	    41.000	    33.000
  38.500	  25.200	    37.400	    33.000
  38.500	  28.800	    36.100	    33.000
  38.500	  32.400	    39.100	    33.000
  38.500	  36.000	    41.300	    33.000
  38.500	  39.600	    40.200	    33.000
  38.500	  43.200	    38.900	    33.000
  38.500	  46.800	    35.500	    33.000
  38.500	  50.400	    37.100	    33.000
  38.500	  54.000	    37.100	    33.000
  38.500	  57.600	    41.100	    33.000
  38.500	  61.200	    37.800	    33.000
  38.500	  64.800	    38.400	    33.000
  38.500	  68.400	    39.100	    33.000
  38.500	  72.000	    37.700	    33.000
  38.500	  75.600	    39.800	    33.000
  38.500	  79.200	    35.500	    33.000
  38.500	  82.800	    35.900	    33.000
  38.500	  86.400	    40.700	    33.000
  38.500	  90.000	    36.500	    33.000
  38.500	  93.600	    38.700	    33.000
  38.500	  97.200	    34.800	    33.000
  38.500	 100.800	    33.500	    33.000
  38.500	 104.400	    38.200	    33.000
  38.500	 108.000	    36.900	    33.000
  38.500	 111.600	    37.400	    33.000
  38.500	 115.200	    36.000	    33.000
  38.500	 118.800	    36.400	    33.000
  38.500	 122.400	    32.400	    33.000
  38.500	 126.000	    34.400	    33.000
  38.500	 129.600	    33.700	    33.000
  38.500	 133.200	    34.100	    33.000
  38.500	 136.800	    36.400	    33.000
  38.500	 140.400	    33.500	    33.000
  38.500	 144.000	    40.200	    33.000
  38.500	 147.600	    36.600	    33.000
  38.500	 151.200	    34.300	    33.000
  38.500	 154.800	    35.000	    33.000
  38.500	 158.400	    35.800	    33.000
  38.500	 162.000	    34.100	    33.000
  38.500	 165.600	    36.000	    33.000
  38.500	 169.200	    33.500	    33.000
  38.500	 172.800	    33.200	    33.000
  38.500	 176.400	    34.700	    33.000
  38.500	 180.000	    34.600	    33.000
  38.500	 183.600	    33.200	    33.000
  38.500	 187.200	    35.700	    33.000
  38.500	 190.800	    38.000	    33.000
  38.500	 194.400	    36.300	    33.000
  38.500	 198.000	    33.700	    33.000
  38.500	 201.600	    33.600	    33.000
  38.500	 205.200	    35.100	    33.000
  38.500	 208.800	    40.200	    33.000
  38.500	 212.400	    38.100	    33.000
  38.500	 216.000	    35.200	    33.000
  38.500	 219.600	    37.300	    33.000
  38.500	 223.200	    32.800	    33.000
  38.500	 226.800	    32.400	    33.000
  38.500	 230.400	    36.400	    33.000
  38.500	 234.000	    37.400	    33.000
  38.500	 237.600	    36.600	    33.000
  38.500	 241.200	    33.700	    33.000
  38.500	 244.800	    37.700	    33.000
  38.500	 248.400	    38.000	    33.000
  38.500	 252.000	    35.500	    33.000
  38.500	 255.600	    37.100	    33.000
  38.500	 259.200	    36.900	    33.000
  38.500	 262.800	    34.300	    33.000
  38.500	 266.400	    34.700	    33.000
  38.500	 270.000	    36.800	    33.000
  38.500	 273.600	    36.800	    33.000
  38.500	 277.200	    38.100	    33.000
  38.500	 280.800	    36.500	    33.000
  38.500	 284.400	    39.400	    33.000
  38.500	 288.000	    38.700	    33.000
  38.500	 291.600	    34.800	    33.000
  38.500	 295.200	    35.100	    33.000
  38.500	 298.800	    36.400	    33.000
  38.500	 302.400	    38.000	    33.000
  38.500	 306.000	    39.900	    33.000
  38.500	 309.600	    38.700	    33.000
  38.500	 313.200	    43.200	    33.000
  38.500	 316.800	    40.000	    33.000
  38.500	 320.400	    38.300	    33.000
  38.500	 324.000	    43.200	    33.000
  38.500	 327.600	    36.500	    33.000
  38.500	 331.200	    40.100	    33.000
  38.500	 334.800	    39.200	    33.000
  38.500	 338.400	    39.200	    33.000
  38.500	 342.000	    37.300	    33.000
  38.500	 345.600	    39.700	    33.000
  38.500	 349.200	    38.900	    33.000
  38.500	 352.800	    40.100	    33.000
  38.500	 356.400	    35.600	    33.000
  38.500	 360.000	    36.400	    33.000
  42.000	   0.000	    39.200	    33.500
  42.000	   3.600	    39.600	    33.500
  42.000	   7.200	    35.300	    33.500
  42.000	  10.800	    39.200	    33.500
  42.000	  14.400	    42.700	    33.500
  42.000	  18.000	    37.800	    33.500
  42.000	  21.600	    38.000	    33.500
  42.000	  25.200	    37.800	    33.500
  42.000	  28.800	    37.200	    33.500
  42.000	  32.400	    39.000	    33.500
  42.000	  36.000	    40.000	    33.500
  42.000	  39.600	    37.100	    33.500
  42.000	  43.200	    39.000	    33.500
  42.000	  46.800	    36.600	    33.500
  42.000	  50.400	    33.400	    33.500
  42.000	  54.000	    37.500	    33.500
  42.000	  57.600	    33.900	    33.500
  42.000	  61.200	    37.100	    33.500
  42.000	  64.800	    35.600	    33.500
  42.000	  68.400	    35.400	    33.500
  42.000	  72.000	    36.100	    33.500
  42.000	  75.600	    34.300	    33.500
  42.000	  79.200	    35.900	    33.500
  42.000	  82.800	    39.200	    33.500
  42.000	  86.400	    39.000	    33.500
  42.000	  90.000	    33.800	    33.500
  42.000	  93.600	    37.700	    33.500
  42.000	  97.200	    36.800	    33.500
  42.000	 100.800	    35.000	    33.500
  42.000	 104.400	    34.700	    33.500
  42.000	 108.000	    33.200	    33.500
  42.000	 111.600	    35.600	    33.500
  42.000	 115.200	    40.000	    33.500
  42.000	 118.800	    38.100	    33.500
  42.000	 122.400	    36.700	    33.500
  42.000	 126.000	    34.300	    33.500
  42.000	 129.600	    34.700	    33.500
  42.000	 133.200	    31.400	    33.500
  42.000	 136.800	    39.200	    33.500
  42.000	 140.400	    34.200	    33.500
  42.000	 144.000	    37.200	    33.500
  42.000	 147.600	    30.800	    33.500
  42.000	 151.200	    37.600	    33.500
  42.000	 154.800	    32.200	    33.500
  42.000	 158.400	    32.400	    33.500
  42.000	 162.000	    32.300	    33.500
  42.000	 165.600	    33.300	    33.500
  42.000	 169.200	    32.800	    33.500
  42.000	 172.800	    34.100	    33.500
  42.000	 176.400	    32.700	    33.500
  42.000	 180.000	    32.300	    33.500
  42.000	 183.600	    36.200	    33.500
  42.000	 187.200	    32.700	    33.500
  42.000	 190.800	    34.500	    33.500
  42.000	 194.400	    32.700	    33.500
  42.000	 198.000	    32.500	    33.500
  42.000	 201.600	    35.300	    33.500
  42.000	 205.200	    34.700	    33.500
  42.000	 208.800	    36.300	    33.500
  42.000	 212.400	    34.500	    33.500
  42.000	 216.000	    34.700	    33.500
  42.000	 219.600	    35.400	    33.500
  42.000	 223.200	    37.800	    33.500
  42.000	 226.800	    37.800	    33.500
  42.000	 230.400	    37.100	    33.500
  42.000	 234.000	    33.000	    33.500
  42.000	 237.600	    35.000	    33.500
  42.000	 241.200	    37.500	    33.500
  42.000	 244.800	    33.000	    33.500
  42.000	 248.400	    36.400	    33.500
  42.000	 252.000	    35.200	    33.500
  42.000	 255.600	    33.200	    33.500
  42.000	 259.200	    35.100	    33.500
  42.000	 262.800	    35.300	    33.500
  42.000	 266.400	    31.700	    33.500
  42.000	 270.000	    36.900	    33.500
  42.000	 273.600	    35.200	    33.500
  42.000	 277.200	    37.000	    33.500
  42.000	 280.800	    34.400	    33.500
  42.000	 284.400	    36.000	    33.500
  42.000	 288.000	    38.000	    33.500
  42.000	 291.600	    37.400	    33.500
  42.000	 295.200	    37.300	    33.500
  42.000	 298.800	    38.200	    33.500
  42.000	 302.400	    37.200	    33.500
  42.000	 306.000	    40.700	    33.500
  42.000	 309.600	    39.700	    33.500
  42.000	 313.200	    38.900	    33.500
  42.000	 316.800	    40.300	    33.500
  42.000	 320.400	    35.700	    33.500
  42.000	 324.000	    38.700	    33.500
  42.000	 327.600	    37.600	    33.500
  42.000	 331.200	    39.800	    33.500
  42.000	 334.800	    32.900	    33.500
  42.000	 338.400	    40.500	    33.500
  42.000	 342.000	    39.800	    33.500
  42.000	 345.600	    35.300	    33.500
  42.000	 349.200	    44.300	    33.500
  42.000	 352.800	    33.300	    33.500
  42.000	 356.400	    36.800	    33.500
  42.000	 360.000	    41.200	    33.500
  45.500	   0.000	    35.200	    30.300
  45.500	   3.600	    34.100	    30.300
  45.500	   7.200	    34.200	    30.300
  45.500	  10.800	    37.200	    30.300
  45.500	  14.400	    37.400	    30.300
  45.500	  18.000	    38.000	    30.300
  45.500	  21.600	    38.300	    30.300
  45.500	  25.200	    40.300	    30.300
  45.500	  28.800	    34.000	    30.300
  45.500	  32.400	    34.500	    30.300
  45.500	  36.000	    36.700	    30.300
  45.500	  39.600	    31.500	    30.300
  45.500	  43.200	    38.700	    30.300
  45.500	  46.800	    32.900	    30.300
  45.500	  50.400	    39.800	    30.300
  45.500	  54.000	    35.600	    30.300
  45.500	  57.600	    36.100	    30.300
  45.500	  61.200	    34.600	    30.300
  45.500	  64.800	    38.100	    30.300
  45.500	  68.400	    37.700	    30.300
  45.500	  72.000	    35.700	    30.300
  45.500	  75.600	    34.000	    30.300
  45.500	  79.200	    35.500	    30.300
  45.500	  82.800	    38.000	    30.300
  45.500	  86.400	    36.700	    30.300
  45.500	  90.000	    38.900	    30.300
  45.500	  93.600	    34.800	    30.300
  45.500	  97.200	    40.000	    30.300
  45.500	 100.800	    34.000	    30.300
  45.500	 104.400	    32.900	    30.300
  45.500	 108.000	    34.400	    30.300
  45.500	 111.600	    34.300	    30.300
  45.500	 115.200	    35.200	    30.300
  45.500	 118.800	    33.800	    30.300
  45.500	 122.400	    35.100	    30.300
  45.500	 126.000	    35.500	    30.300
  45.500	 129.600	    32.000	    30.300
  45.500	 133.200	    34.000	    30.300
  45.500	 136.800	    35.100	    30.300
  45.500	 140.400	    29.600	    30.300
  45.500	 144.000	    32.000	    30.300
  45.500	 147.600	    35.800	    30.300
  45.500	 151.200	    33.300	    30.300
  45.500	 154.800	    34.200	    30.300
  45.500	 158.400	    32.300	    30.300
  45.500	 162.000	    35.400	    30.300
  45.500	 165.600	    34.700	    30.300
  45.500	 169.200	    31.900	    30.300
  45.500	 172.800	    31.500	    30.300
  45.500	 176.400	    32.500	    30.300
  45.500	 180.000	    31.600	    30.300
  45.500	 183.600	    31.600	    30.300
  45.500	 187.200	    30.900	    30.300
  45.500	 190.800	    33.900	    30.300
  45.500	 194.400	    31.000	    30.300
  45.500	 198.000	    32.700	    30.300
  45.500	 201.600	    34.100	    30.300
  45.500	 205.200	    33.400	    30.300
  45.500	 208.800	    35.100	    30.300
  45.500	 212.400	    32.300	    30.300
  45.500	 216.000	    35.900	    30.300
  45.500	 219.600	    35.200	    30.300
  45.500	 223.200	    34.200	    30.300
  45.500	 226.800	    33.400	    30.300
  45.500	 230.400	    34.600	    30.300
  45.500	 234.000	    34.700	    30.300
  45.500	 237.600	    35.700	    30.300
  45.500	 241.200	    33.800	    30.300
  45.500	 244.800	    31.700	    30.300
  45.500	 248.400	    33.200	    30.300
  45.500	 252.000	    37.400	    30.300
  45.500	 255.600	    31.600	    30.300
  45.500	 259.200	    34.600	    30.300
  45.500	 262.800	    33.900	    30.300
  45.500	 266.400	    33.100	    30.300
  45.500	 270.000	    32.100	    30.300
  45.500	 273.600	    32.600	    30.300
  45.500	 277.200	    33.200	    30.300
  45.500	 280.800	    36.200	    30.300
  45.500	 284.400	    38.000	    30.300
  45.500	 288.000	    38.300	    30.300
  45.500	 291.600	    37.500	    30.300
  45.500	 295.200	    34.900	    30.300
  45.500	 298.800	    34.200	    30.300
  45.500	 302.400	    36.300	    30.300
  45.500	 306.000	    34.700	    30.300
  45.500	 309.600	    34.700	    30.300
  45.500	 313.200	    37.600	    30.300
  45.500	 316.800	    33.300	    30.300
  45.500	 320.400	    37.800	    30.300
  45.500	 324.000	    35.900	    30.300
  45.500	 327.600	    35.700	    30.300
  45.500	 331.200	    34.300	    30.300
  45.500	 334.800	    37.900	    30.300
  45.500	 338.400	    36.400	    30.300
  45.500	 342.000	    33.700	    30.300
  45.500	 345.600	    36.400	    30.300
  45.500	 349.200	    40.400	    30.300
  45.500	 352.800	    35.300	    30.300
  45.500	 356.400	    35.400	    30.300
  45.500	 360.000	    34.800	    30.300
  49.000	   0.000	    38.500	    32.700
  49.000	   3.600	    34.000	    32.700
  49.000	   7.200	    37.900	    32.700
  49.000	  10.800	    36.100	    32.700
  49.000	  14.400	    34.800	    32.700
  49.000	  18.000	    30.900	    32.700
  49.000	  21.600	    35.100	    32.700
  49.000	  25.200	    37.900	    32.700
  49.000	  28.800	    36.000	    32.700
  49.000	  32.400	    33.100	    32.700
  49.000	  36.000	    38.500	    32.700
  49.000	  39.600	    38.900	    32.700
  49.000	  43.200	    36.300	    32.700
  49.000	  46.800	    36.400	    32.700
  49.000	  50.400	    35.300	    32.700
  49.000	  54.000	    38.500	    32.700
  49.000	  57.600	    34.000	    32.700
  49.000	  61.200	    38.300	    32.700
  49.000	  64.800	    36.900	    32.700
  49.000	  68.400	    34.500	    32.700
  49.000	  72.000	    35.000	    32.700
  49.000	  75.600	    38.200	    32.700
  49.000	  79.200	    34.400	    32.700
  49.000	  82.800	    34.600	    32.700
  49.000	  86.400	    36.100	    32.700
  49.000	  90.000	    37.100	    32.700
  49.000	  93.600	    38.700	    32.700
  49.000	  97.200	    31.000	    32.700
  49.000	 100.800	    36.900	    32.700
  49.000	 104.400	    34.300	    32.700
  49.000	 108.000	    31.700	    32.700
  49.000	 111.600	    30.300	    32.700
  49.000	 115.200	    36.300	    32.700
  49.000	 118.800	    34.400	    32.700
  49.000	 122.400	    34.300	    32.700
  49.000	 126.000	    31.700	    32.700
  49.000	 129.600	    35.100	    32.700
  49.000	 133.200	    32.000	    32.700
  49.000	 136.800	    35.700	    32.700
  49.000	 140.400	    33.600	    32.700
  49.000	 144.000	    32.500	    32.700
  49.000	 147.600	    37.000	    32.700
  49.000	 151.200	    31.500	    32.700
  49.000	 154.800	    34.600	    32.700
  49.000	 158.400	    31.100	    32.700
  49.000	 162.000	    31.100	    32.700
  49.000	 165.600	    34.700	    32.700
  49.000	 169.200	    34.600	    32.700
  49.000	 172.800	    31.700	    32.700
  49.000	 176.400	    31.800	    32.700
  49.000	 180.000	    32.400	    32.700
  49.000	 183.600	    35.000	    32.700
  49.000	 187.200	    33.200	    32.700
  49.000	 190.800	    34.500	    32.700
  49.000	 194.400	    35.200	    32.700
  49.000	 198.000	    29.700	    32.700
  49.000	 201.600	    28.500	    32.700
  49.000	 205.200	    33.400	    32.700
  49.000	 208.800	    34.400	    32.700
  49.000	 212.400	    31.400	    32.700
  49.000	 216.000	    36.400	    32.700
  49.000	 219.600	    34.500	    32.700
  49.000	 223.200	    31.600	    32.700
  49.000	 226.800	    35.100	    32.700
  49.000	 230.400	    34.700	    32.700
  49.000	 234.000	    30.700	    32.700
  49.000	 237.600	    31.300	    32.700
  49.000	 241.200	    32.700	    32.700
  49.000	 244.800	    33.200	    32.700
  49.000	 248.400	    33.400	    32.700
  49.000	 252.000	    30.900	    32.700
  49.000	 255.600	    33.900	    32.700
  49.000	 259.200	    34.500	    32.700
  49.000	 262.800	    34.600	    32.700
  49.000	 266.400	    34.800	    32.700
  49.000	 270.000	    35.800	    32.700
  49.000	 273.600	    35.700	    32.700
  49.000	 277.200	    36.800	    32.700
  49.000	 280.800	    34.900	    32.700
  49.000	 284.400	    33.700	    32.700
  49.000	 288.000	    38.300	    32.700
  49.000	 291.600	    33.700	    32.700
  49.000	 295.200	    36.000	    32.700
  49.000	 298.800	    34.200	    32.700
  49.000	 302.400	    34.500	    32.700
  49.000	 306.000	    36.900	    32.700
  49.000	 309.600	    37.100	    32.700
  49.000	 313.200	    35.600	    32.700
  49.000	 316.800	    36.600	    32.700
  49.000	 320.400	    35.400	    32.700
  49.000	 324.000	    35.500	    32.700
  49.000	 327.600	    31.700	    32.700
  49.000	 331.200	    34.100	    32.700
  49.000	 334.800	    37.800	    32.700
  49.000	 338.400	    37.600	    32.700
  49.000	 342.000	    33.300	    32.700
  49.000	 345.600	    34.900	    32.700
  49.000	 349.200	    35.300	    32.700
  49.000	 352.800	    38.100	    32.700
  49.000	 356.400	    39.100	    32.700
  49.000	 360.000	    37.100	    32.700
  52.500	   0.000	    36.600	    36.700
  52.500	   3.600	    40.200	    36.700
  52.500	   7.200	    35.900	    36.700
  52.500	  10.800	    37.800	    36.700
  52.500	  14.400	    34.100	    36.700
  52.500	  18.000	    35.600	    36.700
  52.500	  21.600	    37.500	    36.700
  52.500	  25.200	    39.500	    36.700
  52.500	  28.800	    36.800	    36.700
  52.500	  32.400	    32.600	    36.700
  52.500	  36.000	    36.500	    36.700
  52.500	  39.600	    32.300	    36.700
  52.500	  43.200	    33.200	    36.700
  52.500	  46.800	    35.400	    36.700
  52.500	  50.400	    32.700	    36.700
  52.500	  54.000	    34.500	    36.700
  52.500	  57.600	    33.600	    36.700
  52.500	  61.200	    35.700	    36.700
  52.500	  64.800	    31.100	    36.700
  52.500	  68.400	    33.200	    36.700
  52.500	  72.000	    34.400	    36.700
  52.500	  75.600	    34.600	    36.700
  52.500	  79.200	    36.800	    36.700
  52.500	  82.800	    35.800	    36.700
  52.500	  86.400	    33.600	    36.700
  52.500	  90.000	    33.800	    36.700
  52.500	  93.600	    33.700	    36.700
  52.500	  97.200	    40.300	    36.700
  52.500	 100.800	    35.300	    36.700
  52.500	 104.400	    35.300	    36.700
  52.500	 108.000	    33.300	    36.700
  52.500	 111.600	    37.700	    36.700
  52.500	 115.200	    33.600	    36.700
  52.500	 118.800	    35.500	    36.700
  52.500	 122.400	    33.700	    36.700
  52.500	 126.000	    32.400	    36.700
  52.500	 129.600	    32.100	    36.700
  52.500	 133.200	    33.800	    36.700
  52.500	 136.800	    33.600	    36.700
  52.500	 140.400	    36.100	    36.700
  52.500	 144.000	    32.400	    36.700
  52.500	 147.600	    34.200	    36.700
  52.500	 151.200	    34.300	    36.700
  52.500	 154.800	    31.100	    36.700
  52.500	 158.400	    29.800	    36.700
  52.500	 162.000	    32.100	    36.700
  52.500	 165.600	    33.200	    36.700
  52.500	 169.200	    29.500	    36.700
  52.500	 172.800	    34.600	    36.700
  52.500	 176.400	    33.400	    36.700
  52.500	 180.000	    32.200	    36.700
  52.500	 183.600	    32.500	    36.700
  52.500	 187.200	    30.400	    36.700
  52.500	 190.800	    30.700	    36.700
  52.500	 194.400	    30.200	    36.700
  52.500	 198.000	    27.900	    36.700
  52.500	 201.600	    34.700	    36.700
  52.500	 205.200	    29.400	    36.700
  52.500	 208.800	    33.600	    36.700
  52.500	 212.400	    32.600	    36.700
  52.500	 216.000	    32.400	    36.700
  52.500	 219.600	    33.000	    36.700
  52.500	 223.200	    34.400	    36.700
  52.500	 226.800	    32.500	    36.700
  52.500	 230.400	    33.000	    36.700
  52.500	 234.000	    33.300	    36.700
  52.500	 237.600	    31.600	    36.700
  52.500	 241.200	    31.200	    36.700
  52.500	 244.800	    35.800	    36.700
  52.500	 248.400	    34.600	    36.700
  52.500	 252.000	    37.000	    36.700
  52.500	 255.600	    33.400	    36.700
  52.500	 259.200	    30.600	    36.700
  52.500	 262.800	    33.900	    36.700
  52.500	 266.400	    36.000	    36.700
  52.500	 270.000	    31.700	    36.700
  52.500	 273.600	    32.200	    36.700
  52.500	 277.200	    37.100	    36.700
  52.500	 280.800	    32.000	    36.700
  52.500	 284.400	    34.700	    36.700
  52.500	 288.000	    36.600	    36.700
  52.500	 291.600	    34.100	    36.700
  52.500	 295.200	    32.300	    36.700
  52.500	 298.800	    32.600	    36.700
  52.500	 302.400	    35.400	    36.700
  52.500	 306.000	    36.100	    36.700
  52.500	 309.600	    37.900	    36.700
  52.500	 313.200	    37.500	    36.700
  52.500	 316.800	    37.600	    36.700
  52.500	 320.400	    36.600	    36.700
  52.500	 324.000	    34.700	    36.700
  52.500	 327.600	    36.900	    36.700
  52.500	 331.200	    34.300	    36.700
  52.500	 334.800	    35.600	    36.700
  52.500	 338.400	    38.000	    36.700
  52.500	 342.000	    38.300	    36.700
  52.500	 345.600	    35.500	    36.700
  52.500	 349.200	    37.100	    36.700
  52.500	 352.800	    35.500	    36.700
  52.500	 356.400	    40.700	    36.700
  52.500	 360.000	    33.200	    36.700
  56.000	   0.000	    35.100	    31.000
  56.000	   3.600	    35.200	    31.000
  56.000	   7.200	    37.900	    31.000
  56.000	  10.800	    40.000	    31.000
  56.000	  14.400	    35.700	    31.000
  56.000	  18.000	    31.800	    31.000
  56.000	  21.600	    34.400	    31.000
  56.000	  25.200	    36.100	    31.000
  56.000	  28.800	    33.100	    31.000
  56.000	  32.400	    36.200	    31.000
  56.000	  36.000	    33.600	    31.000
  56.000	  39.600	    34.100	    31.000
  56.000	  43.200	    38.300	    31.000
  56.000	  46.800	    32.600	    31.000
  56.000	  50.400	    36.200	    31.000
  56.000	  54.000	    32.100	    31.000
  56.000	  57.600	    34.700	    31.000
  56.000	  61.200	    34.900	    31.000
  56.000	  64.800	    35.100	    31.000
  56.000	  68.400	    37.100	    31.000
  56.000	  72.000	    34.100	    31.000
  56.000	  75.600	    32.700	    31.000
  56.000	  79.200	    37.000	    31.000
  56.000	  82.800	    35.800	    31.000
  56.000	  86.400	    35.700	    31.000
  56.000	  90.000	    32.800	    31.000
  56.000	  93.600	    33.700	    31.000
  56.000	  97.200	    33.600	    31.000
  56.000	 100.800	    36.100	    31.000
  56.000	 104.400	    33.300	    31.000
  56.000	 108.000	    28.700	    31.000
  56.000	 111.600	    37.500	    31.000
  56.000	 115.200	    29.500	    31.000
  56.000	 118.800	    33.600	    31.000
  56.000	 122.400	    37.500	    31.000
  56.000	 126.000	    32.400	    31.000
  56.000	 129.600	    34.700	    31.000
  56.000	 133.200	    34.600	    31.000
  56.000	 136.800	    34.500	    31.000
  56.000	 140.400	    29.500	    31.000
  56.000	 144.000	    30.100	    31.000
  56.000	 147.600	    34.500	    31.000
  56.000	 151.200	    31.700	    31.000
  56.000	 154.800	    31.200	    31.000
  56.000	 158.400	    32.400	    31.000
  56.000	 162.000	    33.800	    31.000
  56.000	 165.600	    31.600	    31.000
  56.000	 169.200	    33.200	    31.000
  56.000	 172.800	    29.900	    31.000
  56.000	 176.400	    31.800	    31.000
  56.000	 180.000	    30.000	    31.000
  56.000	 183.600	    31.000	    31.000
  56.000	 187.200	    31.900	    31.000
  56.000	 190.800	    30.600	    31.000
  56.000	 194.400	    34.200	    31.000
  56.000	 198.000	    33.500	    31.000
  56.000	 201.600	    29.200	    31.000
  56.000	 205.200	    30.700	    31.000
  56.000	 208.800	    32.200	    31.000
  56.000	 212.400	    32.100	    31.000
  56.000	 216.000	    31.000	    31.000
  56.000	 219.600	    32.600	    31.000
  56.000	 223.200	    33.300	    31.000
  56.000	 226.800	    32.000	    31.000
  56.000	 230.400	    34.100	    31.000
  56.000	 234.000	    31.500	    31.000
  56.000	 237.600	    36.000	    31.000
  56.000	 241.200	    31.900	    31.000
  56.000	 244.800	    31.900	    31.000
  56.000	 248.400	    33.500	    31.000
  56.000	 252.000	    37.200	    31.000
  56.000	 255.600	    33.100	    31.000
  56.000	 259.200	    34.600	    31.000
  56.000	 262.800	    31.800	    31.000
  56.000	 266.400	    35.100	    31.000
  56.000	 270.000	    31.700	    31.000
  56.000	 273.600	    33.200	    31.000
  56.000	 277.200	    34.400	    31.000
  56.000	 280.800	    29.600	    31.000
  56.000	 284.400	    33.300	    31.000
  56.000	 288.000	    32.100	    31.000
  56.000	 291.600	    35.000	    31.000
  56.000	 295.200	    34.600	    31.000
  56.000	 298.800	    34.800	    31.000
  56.000	 302.400	    34.000	    31.000
  56.000	 306.000	    35.900	    31.000
  56.000	 309.600	    35.600	    31.000
  56.000	 313.200	    35.100	    31.000
  56.000	 316.800	    34.400	    31.000
  56.000	 320.400	    35.300	    31.000
  56.000	 324.000	    36.200	    31.000
  56.000	 327.600	    38.300	    31.000
  56.000	 331.200	    38.100	    31.000
  56.000	 334.800	    38.200	    31.000
  56.000	 338.400	    36.900	    31.000
  56.000	 342.000	    38.300	    31.000
  56.000	 345.600	    34.200	    31.000
  56.000	 349.200	    32.000	    31.000
  56.000	 352.800	    37.800	    31.000
  56.000	 356.400	    31.400	    31.000
  56.000	 360.000	    35.900	    31.000
  59.500	   0.000	    36.300	    33.200
  59.500	   3.600	    35.300	    33.200
  59.500	   7.200	    35.400	    33.200
  59.500	  10.800	    37.800	    33.200
  59.500	  14.400	    38.900	    33.200
  59.500	  18.000	    35.300	    33.200
  59.500	  21.600	    34.800	    33.200
  59.500	  25.200	    35.000	    33.200
  59.500	  28.800	    35.000	    33.200
  59.500	  32.400	    36.400	    33.200
  59.500	  36.000	    34.300	    33.200
  59.500	  39.600	    36.600	    33.200
  59.500	  43.200	    31.000	    33.200
  59.500	  46.800	    39.300	    33.200
  59.500	  50.400	    37.300	    33.200
  59.500	  54.000	    38.100	    33.200
  59.500	  57.600	    40.100	    33.200
  59.500	  61.200	    32.600	    33.200
  59.500	  64.800	    36.200	    33.200
  59.500	  68.400	    32.100	    33.200
  59.500	  72.000	    35.600	    33.200
  59.500	  75.600	    38.500	    33.200
  59.500	  79.200	    34.700	    33.200
  59.500	  82.800	    33.300	    33.200
  59.500	  86.400	    34.700	    33.200
  59.500	  90.000	    34.000	    33.200
  59.500	  93.600	    35.500	    33.200
  59.500	  97.200	    32.800	    33.200
  59.500	 100.800	    36.400	    33.200
  59.500	 104.400	    33.400	    33.200
  59.500	 108.000	    30.100	    33.200
  59.500	 111.600	    35.400	    33.200
  59.500	 115.200	    32.300	    33.200
  59.500	 118.800	    32.600	    33.200
  59.500	 122.400	    33.600	    33.200
  59.500	 126.000	    31.500	    33.200
  59.500	 129.600	    35.800	    33.200
  59.500	 133.200	    31.300	    33.200
  59.500	 136.800	    32.100	    33.200
  59.500	 140.400	    29.400	    33.200
  59.500	 144.000	    31.400	    33.200
  59.500	 147.600	    32.200	    33.200
  59.500	 151.200	    29.600	    33.200
  59.500	 154.800	    31.900	    33.200
  59.500	 158.400	    31.600	    33.200
  59.500	 162.000	    32.700	    33.200
  59.500	 165.600	    31.400	    33.200
  59.500	 169.200	    34.400	    33.200
  59.500	 172.800	    31.600	    33.200
  59.500	 176.400	    34.500	    33.200
  59.500	 180.000	    31.600	    33.200
  59.500	 183.600	    33.200	    33.200
  59.500	 187.200	    28.300	    33.200
  59.500	 190.800	    34.300	    33.200
  59.500	 194.400	    29.500	    33.200
  59.500	 198.000	    31.900	    33.200
  59.500	 201.600	    32.400	    33.200
  59.500	 205.200	    33.400	    33.200
  59.500	 208.800	    34.200	    33.200
  59.500	 212.400	    32.800	    33.200
  59.500	 216.000	    33.800	    33.200
  59.500	 219.600	    30.800	    33.200
  59.500	 223.200	    31.800	    33.200
  59.500	 226.800	    32.400	    33.200
  59.500	 230.400	    30.800	    33.200
  59.500	 234.000	    32.700	    33.200
  59.500	 237.600	    29.300	    33.200
  59.500	 241.200	    29.300	    33.200
  59.500	 244.800	    30.600	    33.200
  59.500	 248.400	    30.000	    33.200
  59.500	 252.000	    34.100	    33.200
  59.500	 255.600	    32.800	    33.200
  59.500	 259.200	    33.900	    33.200
  59.500	 262.800	    33.000	    33.200
  59.500	 266.400	    31.200	    33.200
  59.500	 270.000	    36.200	    33.200
  59.500	 273.600	    29.400	    33.200
  59.500	 277.200	    36.500	    33.200
  59.500	 280.800	    33.500	    33.200
  59.500	 284.400	    34.500	    33.200
  59.500	 288.000	    33.500	    33.200
  59.500	 291.600	    38.600	    33.200
  59.500	 295.200	    34.700	    33.200
  59.500	 298.800	    32.900	    33.200
  59.500	 302.400	    34.300	    33.200
  59.500	 306.000	    37.300	    33.200
  59.500	 309.600	    35.900	    33.200
  59.500	 313.200	    34.600	    33.200
  59.500	 316.800	    36.000	    33.200
  59.500	 320.400	    36.000	    33.200
  59.500	 324.000	    35.700	    33.200
  59.500	 327.600	    37.600	    33.200
  59.500	 331.200	    35.300	    33.200
  59.500	 334.800	    34.800	    33.200
  59.500	 338.400	    35.600	    33.200
  59.500	 342.000	    35.100	    33.200
  59.500	 345.600	    34.200	    33.200
  59.500	 349.200	    38.600	    33.200
  59.500	 352.800	    36.400	    33.200
  59.500	 356.400	    37.500	    33.200
  59.500	 360.000	    36.000	    33.200
  63.000	   0.000	    38.700	    31.600
  63.000	   3.600	    35.000	    31.600
  63.000	   7.200	    39.700	    31.600
  63.000	  10.800	    36.700	    31.600
  63.000	  14.400	    36.600	    31.600
  63.000	  18.000	    37.600	    31.600
  63.000	  21.600	    33.800	    31.600
  63.000	  25.200	    36.800	    31.600
  63.000	  28.800	    37.800	    31.600
  63.000	  32.400	    35.700	    31.600
  63.000	  36.000	    33.200	    31.600
  63.000	  39.600	    36.300	    31.600
  63.000	  43.200	    30.000	    31.600
  63.000	  46.800	    35.000	    31.600
  63.000	  50.400	    35.700	    31.600
  63.000	  54.000	    32.900	    31.600
  63.000	  57.600	    34.300	    31.600
  63.000	  61.200	    35.800	    31.600
  63.000	  64.800	    36.200	    31.600
  63.000	  68.400	    34.700	    31.600
  63.000	  72.000	    35.500	    31.600
  63.000	  75.600	    36.500	    31.600
  63.000	  79.200	    36.100	    31.600
  63.000	  82.800	    33.800	    31.600
  63.000	  86.400	    34.800	    31.600
  63.000	  90.000	    34.500	    31.600
  63.000	  93.600	    36.900	    31.600
  63.000	  97.200	    34.700	    31.600
  63.000	 100.800	    34.000	    31.600
  63.000	 104.400	    31.500	    31.600
  63.000	 108.000	    33.700	    31.600
  63.000	 111.600	    32.000	    31.600
  63.000	 115.200	    34.700	    31.600
  63.000	 118.800	    36.400	    31.600
  63.000	 122.400	    33.600	    31.600
  63.000	 126.000	    32.400	    31.600
  63.000	 129.600	    32.400	    31.600
  63.000	 133.200	    32.600	    31.600
  63.000	 136.800	    32.300	    31.600
  63.000	 140.400	    35.300	    31.600
  63.000	 144.000	    34.700	    31.600
  63.000	 147.600	    33.400	    31.600
  63.000	 151.200	    31.500	    31.600
  63.000	 154.800	    30.700	    31.600
  63.000	 158.400	    32.400	    31.600
  63.000	 162.000	    31.600	    31.600
  63.000	 165.600	    31.000	    31.600
  63.000	 169.200	    32.000	    31.600
  63.000	 172.800	    30.200	    31.600
  63.000	 176.400	    33.400	    31.600
  63.000	 180.000	    32.300	    31.600
  63.000	 183.600	    30.900	    31.600
  63.000	 187.200	    30.000	    31.600
  63.000	 190.800	    29.400	    31.600
  63.000	 194.400	    30.600	    31.600
  63.000	 198.000	    29.200	    31.600
  63.000	 201.600	    30.300	    31.600
  63.000	 205.200	    32.500	    31.600
  63.000	 208.800	    31.100	    31.600
  63.000	 212.400	    28.000	    31.600
  63.000	 216.000	    31.000	    31.600
  63.000	 219.600	    28.900	    31.600
  63.000	 223.200	    34.700	    31.600
  63.000	 226.800	    31.100	    31.600
  63.000	 230.400	    31.600	    31.600
  63.000	 234.000	    33.900	    31.600
  63.000	 237.600	    32.100	    31.600
  63.000	 241.200	    31.200	    31.600
  63.000	 244.800	    30.200	    31.600
  63.000	 248.400	    32.500	    31.600
  63.000	 252.000	    32.900	    31.600
  63.000	 255.600	    33.000	    31.600
  63.000	 259.200	    28.700	    31.600
  63.000	 262.800	    36.300	    31.600
  63.000	 266.400	    33.400	    31.600
  63.000	 270.000	    33.700	    31.600
  63.000	 273.600	    36.000	    31.600
  63.000	 277.200	    33.600	    31.600
  63.000	 280.800	    33.600	    31.600
  63.000	 284.400	    36.500	    31.600
  63.000	 288.000	    36.500	    31.600
  63.000	 291.600	    36.400	    31.600
  63.000	 295.200	    37.700	    31.600
  63.000	 298.800	    36.900	    31.600
  63.000	 302.400	    33.500	    31.600
  63.000	 306.000	    37.300	    31.600
  63.000	 309.600	    36.300	    31.600
  63.000	 313.200	    36.400	    31.600
  63.000	 316.800	    34.300	    31.600
  63.000	 320.400	    36.600	    31.600
  63.000	 324.000	    35.200	    31.600
  63.000	 327.600	    37.000	    31.600
  63.000	 331.200	    37.500	    31.600
  63.000	 334.800	    40.200	    31.600
  63.000	 338.400	    36.800	    31.600
  63.000	 342.000	    40.000	    31.600
  63.000	 345.600	    34.600	    31.600
  63.000	 349.200	    38.300	    31.600
  63.000	 352.800	    34.300	    31.600
  63.000	 356.400	    37.900	    31.600
  63.000	 360.000	    33.400	    31.600
  66.500	   0.000	    38.300	    32.200
  66.500	   3.600	    36.100	    32.200
  66.500	   7.200	    35.100	    32.200
  66.500	  10.800	    32.700	    32.200
  66.500	  14.400	    34.600	    32.200
  66.500	  18.000	    37.200	    32.200
  66.500	  21.600	    31.200	    32.200
  66.500	  25.200	    33.100	    32.200
  66.500	  28.800	    33.500	    32.200
  66.500	  32.400	    33.000	    32.200
  66.500	  36.000	    33.500	    32.200
  66.500	  39.600	    36.400	    32.200
  66.500	  43.200	    31.500	    32.200
  66.500	  46.800	    33.500	    32.200
  66.500	  50.400	    33.700	    32.200
  66.500	  54.000	    32.100	    32.200
  66.500	  57.600	    34.000	    32.200
  66.500	  61.200	    32.500	    32.200
  66.500	  64.800	    34.400	    32.200
  66.500	  68.400	    31.500	    32.200
  66.500	  72.000	    33.200	    32.200
  66.500	  75.600	    35.300	    32.200
  66.500	  79.200	    32.400	    32.200
  66.500	  82.800	    34.500	    32.200
  66.500	  86.400	    31.500	    32.200
  66.500	  90.000	    33.600	    32.200
  66.500	  93.600	    37.100	    32.200
  66.500	  97.200	    32.000	    32.200
  66.500	 100.800	    36.700	    32.200
  66.500	 104.400	    37.200	    32.200
  66.500	 108.000	    32.700	    32.200
  66.500	 111.600	    31.500	    32.200
  66.500	 115.200	    35.500	    32.200
  66.500	 118.800	    33.500	    32.200
  66.500	 122.400	    31.300	    32.200
  66.500	 126.000	    34.100	    32.200
  66.500	 129.600	    29.500	    32.200
  66.500	 133.200	    33.200	    32.200
  66.500	 136.800	    29.700	    32.200
  66.500	 140.400	    31.600	    32.200
  66.500	 144.000	    32.500	    32.200
  66.500	 147.600	    34.000	    32.200
  66.500	 151.200	    29.200	    32.200
  66.500	 154.800	    34.900	    32.200
  66.500	 158.400	    30.700	    32.200
  66.500	 162.000	    31.400	    32.200
  66.500	 165.600	    33.200	    32.200
  66.500	 169.200	    30.500	    32.200
  66.500	 172.800	    28.600	    32.200
  66.500	 176.400	    29.200	    32.200
  66.500	 180.000	    31.800	    32.200
  66.500	 183.600	    32.700	    32.200
  66.500	 187.200	    32.900	    32.200
  66.500	 190.800	    29.600	    32.200
  66.500	 194.400	    30.900	    32.200
  66.500	 198.000	    33.900	    32.200
  66.500	 201.600	    31.700	    32.200
  66.500	 205.200	    33.200	    32.200
  66.500	 208.800	    30.700	    32.200
  66.500	 212.400	    31.000	    32.200
  66.500	 216.000	    30.900	    32.200
  66.500	 219.600	    30.300	    32.200
  66.500	 223.200	    32.600	    32.200
  66.500	 226.800	    33.000	    32.200
  66.500	 230.400	    34.000	    32.200
  66.500	 234.000	    33.700	    32.200
  66.500	 237.600	    31.600	    32.200
  66.500	 241.200	    33.300	    32.200
  66.500	 244.800	    32.500	    32.200
  66.500	 248.400	    32.400	    32.200
  66.500	 252.000	    34.100	    32.200
  66.500	 255.600	    34.400	    32.200
  66.500	 259.200	    35.600	    32.200
  66.500	 262.800	    33.600	    32.200
  66.500	 266.400	    31.800	    32.200
  66.500	 270.000	    34.000	    32.200
  66.500	 273.600	    34.900	    32.200
  66.500	 277.200	    36.500	    32.200
  66.500	 280.800	    36.800	    32.200
  66.500	 284.400	    37.200	    32.200
  66.500	 288.000	    33.100	    32.200
  66.500	 291.600	    34.700	    32.200
  66.500	 295.200	    33.200	    32.200
  66.500	 298.800	    34.100	    32.200
  66.500	 302.400	    35.900	    32.200
  66.500	 306.000	    40.100	    32.200
  66.500	 309.600	    37.800	    32.200
  66.500	 313.200	    36.200	    32.200
  66.500	 316.800	    35.800	    32.200
  66.500	 320.400	    37.500	    32.200
  66.500	 324.000	    41.400	    32.200
  66.500	 327.600	    36.400	    32.200
  66.500	 331.200	    37.500	    32.200
  66.500	 334.800	    35.300	    32.200
  66.500	 338.400	    39.400	    32.200
  66.500	 342.000	    38.800	    32.200
  66.500	 345.600	    38.200	    32.200
  66.500	 349.200	    37.200	    32.200
  66.500	 352.800	    35.100	    32.200
  66.500	 356.400	    37.600	    32.200
  66.500	 360.000	    38.500	    32.200
  70.000	   0.000	    34.200	    31.400
  70.000	   3.600	    36.300	    31.400
  70.000	   7.200	    33.100	    31.400
  70.000	  10.800	    33.000	    31.400
  70.000	  14.400	    36.100	    31.400
  70.000	  18.000	    35.100	    31.400
  70.000	  21.600	    36.100	    31.400
  70.000	  25.200	    31.100	    31.400
  70.000	  28.800	    30.200	    31.400
  70.000	  32.400	    37.500	    31.400
  70.000	  36.000	    30.900	    31.400
  70.000	  39.600	    30.500	    31.400
  70.000	  43.200	    31.900	    31.400
  70.000	  46.800	    31.000	    31.400
  70.000	  50.400	    27.100	    31.400
  70.000	  54.000	    28.500	    31.400
  70.000	  57.600	    29.300	    31.400
  70.000	  61.200	    31.800	    31.400
  70.000	  64.800	    30.400	    31.400
  70.000	  68.400	    29.400	    31.400
  70.000	  72.000	    30.400	    31.400
  70.000	  75.600	    30.900	    31.400
  70.000	  79.200	    34.200	    31.400
  70.000	  82.800	    29.900	    31.400
  70.000	  86.400	    32.500	    31.400
  70.000	  90.000	    31.400	    31.400
  70.000	  93.600	    33.700	    31.400
  70.000	  97.200	    34.000	    31.400
  70.000	 100.800	    33.000	    31.400
  70.000	 104.400	    34.100	    31.400
  70.000	 108.000	    30.900	    31.400
  70.000	 111.600	    34.300	    31.400
  70.000	 115.200	    33.500	    31.400
  70.000	 118.800	    34.400	    31.400
  70.000	 122.400	    34.500	    31.400
  70.000	 126.000	    34.700	    31.400
  70.000	 129.600	    33.400	    31.400
  70.000	 133.200	    32.400	    31.400
  70.000	 136.800	    34.700	    31.400
  70.000	 140.400	    34.300	    31.400
  70.000	 144.000	    28.600	    31.400
  70.000	 147.600	    31.200	    31.400
  70.000	 151.200	    31.400	    31.400
  70.000	 154.800	    31.600	    31.400
  70.000	 158.400	    29.300	    31.400
  70.000	 162.000	    29.400	    31.400
  70.000	 165.600	    30.300	    31.400
  70.000	 169.200	    30.600	    31.400
  70.000	 172.800	    29.900	    31.400
  70.000	 176.400	    32.300	    31.400
  70.000	 180.000	    33.600	    31.400
  70.000	 183.600	    31.900	    31.400
  70.000	 187.200	    29.700	    31.400
  70.000	 190.800	    30.400	    31.400
  70.000	 194.400	    29.500	    31.400
  70.000	 198.000	    26.900	    31.400
  70.000	 201.600	    30.300	    31.400
  70.000	 205.200	    32.100	    31.400
  70.000	 208.800	    30.700	    31.400
  70.000	 212.400	    31.600	    31.400
  70.000	 216.000	    30.500	    31.400
  70.000	 219.600	    32.600	    31.400
  70.000	 223.200	    31.000	    31.400
  70.000	 226.800	    31.000	    31.400
  70.000	 230.400	    31.800	    31.400
  70.000	 234.000	    30.400	    31.400
  70.000	 237.600	    30.300	    31.400
  70.000	 241.200	    28.200	    31.400
  70.000	 244.800	    31.300	    31.400
  70.000	 248.400	    32.100	    31.400
  70.000	 252.000	    34.600	    31.400
  70.000	 255.600	    33.200	    31.400
  70.000	 259.200	    31.000	    31.400
  70.000	 262.800	    31.200	    31.400
  70.000	 266.400	    36.000	    31.400
  70.000	 270.000	    33.900	    31.400
  70.000	 273.600	    35.300	    31.400
  70.000	 277.200	    36.400	    31.400
  70.000	 280.800	    37.000	    31.400
  70.000	 284.400	    35.100	    31.400
  70.000	 288.000	    35.200	    31.400
  70.000	 291.600	    36.600	    31.400
  70.000	 295.200	    37.200	    31.400
  70.000	 298.800	    35.300	    31.400
  70.000	 302.400	    34.700	    31.400
  70.000	 306.000	    36.700	    31.400
  70.000	 309.600	    39.000	    31.400
  70.000	 313.200	    36.300	    31.400
  70.000	 316.800	    37.600	    31.400
  70.000	 320.400	    38.000	    31.400
  70.000	 324.000	    35.200	    31.400
  70.000	 327.600	    37.300	    31.400
  70.000	 331.200	    34.800	    31.400
  70.000	 334.800	    36.200	    31.400
  70.000	 338.400	    36.600	    31.400
  70.000	 342.000	    35.600	    31.400
  70.000	 345.600	    37.500	    31.400
  70.000	 349.200	    38.700	    31.400
  70.000	 352.800	    40.800	    31.400
  70.000	 356.400	    37.300	    31.400
  70.000	 360.000	    34.700	    31.400
